subject,trial,condition,Fp1,AF7,AF3,F1,F3,F5,F7,FT7,FC5,FC3,FC1,C1,C3,C5,T7,TP7,CP5,CP3,CP1,P1,P3,P5,P7,P9,PO7,PO3,O1,Iz,Oz,POz,Pz,CPz,Fpz,Fp2,AF8,AF4,AFz,Fz,F2,F4,F6,F8,FT8,FC6,FC4,FC2,FCz,Cz,C2,C4,C6,T8,TP8,CP6,CP4,CP2,P2,P4,P6,P8,P10,PO8,PO4,O2,VEOa,VEOb,HEOL,HEOR,Nose,TP10
1.0,14.0,1.0,-3.479832975260417,1.2802103841145829,0.9843503906250013,1.5948808593750012,-0.23345634765625037,-2.0917533203124967,-1.1679214518229188,0.2329819986979179,0.1415184570312514,2.978107845052081,4.014959993489588,2.3141778645833275,1.3348387044270822,0.981251302083336,-1.5850333658854214,0.3341946614583327,1.3449948242187506,3.3150951822916674,6.204810937499993,4.347451562499991,0.7455936523437486,2.106435579427087,1.8316764322916672,-0.9561358072916678,4.270452864583333,3.4039069010416774,6.597954492187487,-5.087968782552077,0.8543708658854143,3.263549186197915,6.578106705729145,6.558075553385422,1.0060778320312491,1.945057910156252,-3.6618274088541667,6.100479492187502,2.8823240559895855,5.043857519531252,0.2661091471354163,8.340146419270813,-2.870938769531253,-4.577397916666665,-2.8559470703124963,-0.877744921874999,9.0016798502604,4.010643652343756,6.389222786458341,11.492002473958323,2.411625455729163,4.7649430989583275,6.0423275390625095,1.7504032552083337,3.999615136718741,-4.088012597656254,7.2961354817708335,8.67685559895836,6.3464721028646,9.569131249999996,6.779431217447918,3.603299316406247,1.2357300455729197,4.882447493489579,5.901202441406261,-0.27531311848958157,-6.77046848958332,-6.501702962239595,-10.859082942708296,-0.42874287109375214,-1.6980893554687464,7.171424999999997
1.0,16.0,1.0,0.5980672526041688,-2.9014317057291668,-0.6334869791666653,-1.3526163085937484,-7.103198046874994,-5.824381412760402,-4.310928255208333,-5.422231184895831,-4.985052539062498,-2.877394335937503,-3.234718001302085,1.9313778971354152,-3.556373795572918,-3.4649715820312434,-4.016117057291667,-4.694818359374995,-3.3315945963541718,-1.1032745117187504,6.092810872395835,1.602160774739583,-0.3919359375000031,-4.5416546874999915,-4.540265104166669,-4.977999055989586,-3.505243522135419,-2.49113912760417,0.1161618489583332,-11.367153125000009,-1.9113265299479167,3.3074373372395915,2.778509244791675,2.492889648437498,-3.7561204752604165,-5.985149674479168,-8.739380208333332,-8.008325716145846,0.8038314453125,-0.0882020833333337,1.6623769856770965,-5.657214095052079,-4.46111637369791,2.073342057291665,-3.284209830729162,-5.792736523437495,-0.46070677083333283,-1.4949380859375039,-0.4267818033854181,3.360714095052097,-0.5522280924479152,-2.497661067708336,-1.0475494466145827,-1.1981645833333323,0.16345423177083507,-7.34585029296874,0.30115999348958694,-2.3934968750000096,1.0693930013020818,-1.216488606770836,-1.0701254231770825,0.7276879231770802,-3.7113549479166594,-3.4383791992187436,0.8540343750000009,-3.516559114583328,-13.483857779947947,-5.895403613281239,-5.838316569010423,-6.006882552083344,-9.265945572916653,1.9479173177083347
1.0,16.0,2.0,-6.419842350260421,-8.860002278645823,-9.66735813802084,-13.137965332031257,-10.909341796874967,-8.890484016927084,-6.738810058593739,-7.197972688802079,-7.18425491536459,-12.3931216471354,-9.92314746093748,-16.00590133463538,-15.676030175781241,-11.43266393229164,-8.598004752604185,-9.557038606770861,-12.007363118489584,-18.345531510416663,-14.53616220703124,-17.498613216145817,-15.098562792968762,-11.666807845052086,-12.185632682291688,-7.260100032552089,-10.827174251302056,-14.114888932291684,-15.533975325520837,-14.364590429687489,-14.121247363281261,-16.644013118489614,-19.307001171875005,-18.11566282552084,-5.44103929036459,-10.38784095052082,-8.488948079427084,-15.220598958333355,-17.487193554687483,-13.463810351562516,-13.29160270182293,-14.459355989583356,-11.13285397135415,-4.112593587239581,-6.212462109374986,-11.392874869791681,-16.777308333333345,-16.25171907552079,-15.807474641927113,-17.28993652343753,-0.31858727213540833,-17.805586035156235,-14.414600813802089,-10.824549804687479,-12.512878971354157,-15.924080891927096,-17.1257818359375,-15.926209472656245,-17.740221777343738,-19.03939156901038,-16.11573987630207,-15.113414453124994,-12.671722916666676,-13.043979459635443,-17.653836686197927,-15.78618912760414,-2.7754944986979235,-5.821991796874998,-6.840687141927087,-2.0552185546874995,-0.8871838216145824,-17.857061555989606
1.0,10.0,2.0,3.4641937825520874,1.1987836263020857,4.703844238281248,13.380504199218736,7.42005052083334,2.487577408854167,2.2155318033854208,3.236531640624996,3.3772487304687537,12.692817936197907,14.6093685221354,11.76840042317707,13.94774215494791,6.2390177408854095,5.12770833333333,5.206524772135423,7.653100097656247,9.374197916666674,16.682716438802085,18.116045377604138,10.074267513020834,6.642696516927086,6.852758626302094,1.8720380533854184,5.842258561197929,12.302697591145865,9.083291308593735,3.1178025716145767,5.794251139322913,11.967076399739575,12.47559124348956,14.655134602864585,6.69161070963542,7.76133935546875,2.9054375325520865,9.23425458984376,12.509449674479201,14.944184472656252,7.628783203124993,8.92458587239584,13.629936848958373,4.402371256510414,6.390617024739586,8.61775638020835,14.750157942708368,18.1625979166667,14.541920833333327,14.519762792968748,18.747139160156262,12.872742936197879,10.902610872395824,7.50157350260415,9.774904036458343,10.22051373697918,13.583498697916683,16.087167968749974,12.829343196614602,14.544669498697933,12.346064062500007,13.28568919270831,5.43342916666667,11.384548697916701,12.538555403645818,12.368173339843752,4.00842464192708,0.54956435546875,-1.053577669270831,2.641776692708328,2.966512890625001,15.971363509114601
1.0,1.0,2.0,-7.711901757812449,-0.06731197916667059,-6.684589973958345,-2.781481803385416,-0.7878115234374974,4.089455826822918,-1.055672786458332,-2.255122460937509,-2.4354348307291853,0.6726025390624982,3.661249837239597,-0.7925742513020909,-0.1982496093750057,4.905523893229164,1.430289485677081,-0.6445739257812598,0.20581324869791584,-2.621942480468767,-3.0059490885416498,0.15183567708331397,0.36788225911458206,-0.39177522786458147,-1.2020329752604049,-0.8232451171874939,-2.2493356445312407,2.8895472330729177,-6.8146228841145815,-4.681201269531272,-2.466640787760415,-2.700807617187492,-0.22751422526041623,-7.080138736979182,1.659771972656265,-1.40879235026042,-2.096011490885419,-7.116185872395831,-2.540866471354168,-7.759794954427099,-7.891062369791683,-10.484331445312515,-12.175532324218757,-6.7655880533854225,-6.864163834635424,-9.737297786458335,-8.051223828125002,-11.426288281249969,-7.612965722656249,-7.890436132812508,0.15035009765624643,-6.030901660156239,-9.344943294270822,-4.259799869791666,-2.4191732096354133,1.8821767578124968,-3.093050065104162,-3.4070792968750054,-3.2481918294270913,-3.614735123697923,-2.4827565429687715,-8.12639680989579,-4.995512662760407,-5.083524707031255,-5.332816080729143,-2.4461035481770907,-5.154477799479152,0.6857189778645904,-9.038833789062513,0.9293099934896262,-1.4259747721354195,-6.627525716145917
1.0,20.0,3.0,-1.1530565755208284,-1.3228386718750016,-5.588627246093761,2.073304589843751,-3.5463345377604156,-4.8681339518229185,-2.5152608723958365,-2.128227962239582,-1.9742083007812512,-6.31291087239584,-2.982379394531256,-0.8028908203124955,5.114483203125,-1.1611102213541706,-4.532014160156248,-1.2794992187499998,-0.891526822916669,1.2126349609375007,0.015944596354165,8.802976497395834,0.8495913411458322,-0.14455911458333479,0.029990266927083318,-0.6758221028645783,0.9702962239583351,-0.8417649739583325,2.0470556966145836,5.371402376302082,2.699916894531249,-0.3265071614583324,2.864268684895833,-1.2490881835937446,-2.20662444661459,-13.086754003906286,-8.5939625325521,-7.248183007812513,-3.7421517578124974,0.1968682291666655,-5.43959127604166,-2.8816734049479193,-2.643785286458337,-6.265038020833331,-0.14949752604166558,4.780532877604168,-0.027396354166671008,-6.02352063802081,-3.5333961263020908,-1.0746919921875018,0.5769432617187502,-1.3921879231770762,-0.5223016601562444,-0.11154361979166587,0.7517716471354169,5.711036979166656,-0.4076081054687557,-2.648822298177088,-1.0242420572916748,-0.39279270833333313,1.4369839192708325,0.8123280273437504,0.7169200520833338,1.0446600911458301,0.3110048177083344,1.9831745442708362,-2.280519791666669,-6.127960839843759,-4.4759920572916645,-0.9014111002604119,-8.563365429687492,-2.1280028320312536
1.0,100.0,1.0,13.228117675781233,5.54451067708334,7.675110156249993,5.98522825520833,1.4407662109374988,0.4506774414062505,1.8777475585937504,2.942066178385419,3.245743229166653,9.739506087239583,4.810176822916637,9.71111044921876,7.38086080729168,1.7973381835937536,1.3481588216145821,5.154025585937504,2.5680663736979117,13.629295182291669,13.64639319661458,11.890624739583325,9.483380501302085,3.9258792968750007,4.406268001302087,0.013702213541663363,6.562506933593745,4.665225260416672,1.9511375325520801,7.24554475911458,6.560929752604182,10.220284082031258,7.52363603515625,13.806068977864612,-0.13643193359374303,2.0382503906249974,3.027235286458312,5.182178092447916,0.08433492838541183,11.35305865885418,5.847286458333335,3.7924860026041554,10.316115462239571,2.358638151041669,4.876591503906249,3.2195782552083316,8.264978808593737,11.162468294270846,10.435260807291682,11.14385390625001,6.369949902343751,7.633488216145832,5.501480826822937,1.4208304361979185,0.46604599609375624,4.8009261718750205,5.640008170572918,-6.143406315104161,11.16894488932292,3.965895703125009,4.828099967447927,1.7903101562500021,4.041836946614577,6.93281331380209,12.767131184895844,1.8683700520833388,-3.4399740885416676,-11.261237011718753,0.12375341796874513,-6.586733040364591,-19.80599248046875,12.554602766927099
1.0,13.0,3.0,-3.369654069010419,-1.400740625000009,-3.6611196289062495,-4.07712275390625,-6.677825878906248,-2.9875488606770806,-1.7729217122395837,-1.4265553059895832,-1.4977588541666658,-8.428517154947924,-10.044879720052089,-4.810202766927078,-5.497722558593748,-4.806527213541667,-3.320245703125004,-4.588287467447908,-6.550692415364548,-2.1692988281250085,-6.622417968749986,-7.443040527343748,-7.55694697265625,-5.4279944986979,-5.727795638020839,-2.0509168619791627,-9.019038867187506,-10.781107096354182,-8.171731380208316,-6.078152864583334,-7.009211100260393,-7.572244531249987,-8.972922070312489,-8.009581217447932,-3.075683235677088,-1.7897871419270848,0.24095100911458264,-0.564372819010421,-5.43162132161457,-6.979342350260397,-8.518197981770863,-7.764421484374985,-3.3877027669270814,-2.3107050130208346,-4.297415266927088,-2.556142220052085,-1.633029003906242,-4.1069036132812435,-8.438369661458312,-10.41311295572914,-9.186905859375004,-9.41016953125,-6.681654492187512,-4.248846777343761,-6.696994303385434,-6.810484212239593,-6.831501074218758,-2.8194286458333377,-7.620194108072901,-8.433956738281248,-2.5641460611979157,-5.327757226562492,-3.691172460937491,-8.802715755208341,-7.435904199218729,-5.66321806640626,24.856259342447952,-10.001979524739589,9.793951725260419,-4.711536165364586,-10.731041080729154,-7.1174332356770345
1.0,15.0,1.0,0.8269312500000008,-6.3898939127604395,-0.8436765624999975,-6.436011165364593,0.9631466796874989,-2.750135546874999,-3.0885253255208394,-4.574686067708336,-4.739388671875011,-3.73371389973959,1.8894586914062483,-4.20676165364583,-0.5488064778645825,-5.312357812499996,-8.329679752604163,-5.7337271809895825,-5.879127636718747,-4.0762941080729185,-8.424830501302056,-5.149794238281249,-6.232420768229151,-5.861682421875003,-6.18784986979166,-6.128258203124983,-8.315044108072895,-6.284318880208353,-13.852794042968732,-4.2586211914062435,-5.820756445312473,-4.379303222656255,-2.8312943684895866,-5.726680045572923,-4.0165511067708275,-3.816126204427078,-5.646275292968735,-2.3496878255208355,0.17936946614583396,-4.068419010416666,-6.212717285156248,-6.493116536458328,-4.159313183593755,-8.326804817708323,-11.243024088541658,-7.682765494791679,-9.850953385416647,-0.5243241861979253,-4.673641503906256,-8.111269824218768,-5.795001399739587,-5.371236848958311,-6.008393229166647,-8.844998437499989,-6.725301757812487,0.2951183268229156,-7.2307355794271055,-7.449132356770838,-5.771838671875003,-5.033740690104154,-9.271634179687501,2.509664453125001,-3.1079586588541592,-6.009266731770833,-5.974055175781235,-8.154063769531263,-7.570587630208329,-8.477708951822933,-7.279211230468744,-9.520428255208342,-9.12182936197916,-5.819431575520839
1.0,18.0,2.0,-31.423792708333295,-32.88935061848947,-26.460824446614556,-6.004559733072912,-22.766897526041706,-14.70155563151043,-0.2742344075520814,-1.3188884114583301,-1.270706412760415,-6.600471484374984,-6.175884667968751,-6.213174739583334,-0.2290237304687475,-3.035948763020832,0.520606282552084,0.8221561197916678,-2.478995117187501,-2.122567578125003,-5.518848177083334,-9.04661803385418,-4.491832128906242,0.012643717447919147,-0.14017132161458143,2.4562662760416645,-5.128224348958331,-6.529529622395846,-3.2563189127604004,-1.2559007161458309,-1.566868619791667,-3.94768772786458,-4.630994954427081,-5.801597493489591,-12.498949023437518,-26.442070117187498,-32.62276712239583,-34.89063802083333,-16.874985807291612,-7.58761702473958,-3.9966786132812513,-12.701770117187507,-16.30270312500002,-6.656622493489553,-1.9767009440104226,-10.429765983072889,-2.9324229166666647,-1.9636038736979051,-6.617846777343733,-6.700015397135434,-3.2786653971354114,-5.26399287109374,-5.103396842447909,-0.1200231770833375,0.7940982096354173,-4.224966829427108,-4.2284800781250045,-12.680677473958335,-4.510831673177077,-3.7765541666666707,-2.24725081380208,0.2048009765625001,1.2294148437500008,3.2670202799479107,-3.5775725585937614,-2.2893380533854155,-13.753353873697902,5.912106152343745,-7.328551822916649,-13.0694359049479,-3.3912086263020877,-5.407578743489576
1.0,21.0,1.0,-2.337002864583334,-3.590332128906255,0.02648476562498971,-0.5416048828125076,0.9411596679687446,1.762307486979173,1.3986384114583343,3.3958309570312455,3.593721061197907,2.9597104166666672,3.040438281250005,5.118443717447915,5.922802148437497,3.695982454427085,3.582608268229173,3.448856835937491,2.9569009440104135,4.452575358072919,2.1499367838541645,8.339220996093742,2.6711074869791616,3.014571061197925,2.401304622395832,1.654026529947919,4.448474641927089,0.035466178385416096,2.864815852864581,2.4155832682291694,1.7007863606770879,1.6271006510416726,1.8420826822916638,2.772111686197913,0.8621868815104169,0.04249348958333397,-1.9168107096354172,1.1545482421874935,-1.4835522460937467,0.9110986979166792,0.21131490885416052,-3.0211585611979124,-1.956895052083336,-2.4375404622395824,-3.276029361979169,-1.3815295898437523,1.9805958658854175,2.9293945963541663,3.3805762369791714,4.08799840494791,4.2175153645833365,2.8935061197916654,1.6425345377604177,-1.3940851888020829,-0.6202666666666676,2.8609485351562487,2.2294538411458333,7.235604003906242,2.0983287434895836,0.996732454427082,0.9040208984374999,2.7088268229166714,0.11589215494791551,3.0092258463541626,1.9816143229166672,-0.7075272135416659,-6.168769238281262,-4.7553370117187574,-2.1093451497395845,-5.767687597656253,-5.373205078125001,2.167780045572916
1.0,10.0,1.0,6.2738806640624984,7.922053515624999,7.20679244791667,-3.6135234700520815,5.250736946614581,4.382891503906247,2.7400421223958347,6.218776692708324,6.0083180338541675,7.317023111979171,3.5905213867187435,6.273168229166656,7.733558105468745,5.671290559895826,4.109556217447918,5.273688183593749,5.756108268229171,8.911630761718763,7.272731119791664,8.309354980468747,7.179443847656238,5.075269661458333,4.842373079427079,4.613379817708338,0.677357910156256,3.455220930989583,10.853241113281245,8.398440852864574,6.622016341145836,5.7053081705729225,7.12238095703125,8.578436979166659,2.8400981770833336,2.8615647460937503,2.1733967447916664,5.101801725260402,5.5216531901041614,8.793685611979173,10.62315276692707,5.64757249348959,3.2711685872395857,5.8247101562499966,4.036644628906248,2.215590462239581,7.109229069010422,2.2977501953125046,6.1915510416666715,4.053349576822913,4.049586914062499,4.427827473958335,10.178695019531238,4.2874226562500075,4.177430045572913,6.399794596354156,6.475594368489582,7.285944010416664,8.858501171874996,5.120358821614584,3.639799121093757,6.3758635742187515,4.422541634114585,5.786462988281244,8.55663489583334,3.4867343424479067,1.6009670247395835,1.8797104166666736,3.1335711914062503,3.9431913085937453,5.014312174479162,8.18806295572917
1.0,11.0,1.0,4.791724023437504,5.0387235677083355,-2.982647753906241,0.6567377929687496,-0.36489609375000126,0.6411862955729161,1.0120083007812508,1.027664225260417,0.7782615559895832,3.8657513346354224,9.022860026041672,4.147383756510416,4.063827571614585,3.931506022135403,-0.46725748697917074,1.5717455403645852,4.877273502604169,7.425010319010415,6.973231315104165,12.987485742187516,7.587618196614579,4.726233398437498,4.673756608072911,4.047781087239589,4.021048665364593,7.491669205729156,5.071997005208327,8.947005371093754,8.699909667968743,10.42845149739585,10.721566959635418,7.450420540364572,1.9983769205729158,0.37079804687499784,-1.5912795898437526,1.5449423177083326,1.2852259765624992,-1.9578158528645844,2.236496354166666,1.0639052083333307,1.0818635742187463,4.736231054687493,4.26692356770834,0.6440120117187544,2.032621614583333,3.1759967773437445,-0.5524289062500055,5.841624446614581,6.386279361979174,5.687944759114594,4.416105566406248,4.277204101562504,6.394299121093745,2.8870039062500017,6.468025781250006,7.522191145833339,8.584802376302067,8.541520930989579,7.41922975260417,4.939737044270824,9.164570833333325,6.120915690104172,8.658280761718755,8.782228613281264,15.582354459635399,-3.677188834635411,8.704366373697924,-0.5585910481770816,-3.7380315104166897,8.166089876302086
1.0,12.0,3.0,5.3200399414062565,6.598042545572935,-2.3814660481770926,1.0419877929687467,-0.943911132812501,0.6292943684895749,-1.2953819661458423,-2.0844128580729233,-1.5936291015625021,-2.722754231770829,-8.475557421875012,-0.8311788085937462,0.671018261718752,-3.320973274739585,-3.707427343750004,-5.9393395182291675,-4.252303743489596,-7.54407220052083,-4.317443912760402,-5.87299000651038,-5.184916243489583,-5.384710253906268,-5.647261197916687,-5.807480664062504,-3.5270997721354225,-4.3294849283854155,-6.124166992187475,-8.322554947916679,-5.694519791666679,-7.0890438802083375,-4.359097005208333,-7.372536197916667,-3.122755533854168,0.5663426757812207,-0.44160745442709765,-1.6262758138020936,-1.2972865234374982,-3.7755544596354285,-4.113131184895844,-3.1706980143229093,-0.7104603841145779,-0.44129996744794275,3.51385244140625,1.5391552408854157,-2.3812877604166696,-6.066996907552093,-5.870902278645828,-3.8953883463541654,-4.5119024414062725,-4.642579687500003,2.902668782552086,-2.848108854166668,-1.7293783203124946,-4.278759309895837,-4.416620312499998,-8.513164453125013,-4.087979264322898,-3.2145020507812485,-5.7746235677083275,-3.140367447916681,-5.9814899414062355,-4.560146679687508,-3.3761955729166506,-3.010081966145847,4.7304956705729095,1.048158561197916,5.1330493164062405,7.294261002604166,1.216429654947919,-4.42842542317709
1.0,13.0,1.0,3.399864388020839,0.9800634440104162,3.947165136718748,4.073621191406257,-2.5113227213541647,8.54461025390631,6.075924674479164,6.663391373697913,6.400052864583317,5.469061979166669,6.394261914062511,3.690677897135409,1.326006477864578,3.1872766276041653,3.4419159505208454,4.238675162760409,4.085471191406249,7.301275585937486,4.026896940104174,3.686869791666673,2.678883430989584,2.3288812825520915,2.1563708007812474,1.5059328450520937,5.411655175781263,4.131718619791658,-2.742095247395831,0.5484510742187565,0.7457637369791749,2.8049744466145943,5.197619238281253,2.0200794596354217,3.839471777343753,3.094880859375,0.2623764973958343,4.128799251302085,1.6094628906250026,5.491309472656249,4.205056966145839,-1.480315462239582,-0.8436858072916574,4.786883203124996,6.4736420247396,3.8833194010416583,4.431407063802083,4.578813964843744,2.2858211914062494,0.1997722005208387,3.8010420898437496,3.55118821614584,5.366461914062497,2.75568040364583,2.9992470377604143,-0.500992773437492,4.200353483072924,2.979582779947917,4.497111263020816,6.395638476562522,3.6732476236979075,2.9277202473958313,-1.2971790039062567,0.32828157552083387,5.1560145833333255,7.187033854166675,0.7545064778645818,-5.492971842447903,7.097024869791661,1.4810176757812499,-4.305190039062497,1.460625390625003
1.0,14.0,2.0,-11.02368623046877,-6.9877122395833355,-13.016201399739588,-10.797281575520822,-12.08204710286458,-9.059314420572905,-8.451628645833338,-9.48884335937499,-9.121030533854157,-11.198120410156244,-7.327038248697909,-10.363808105468753,-11.956349348958367,-8.08969811197918,-6.872242968750002,-8.629043098958325,-9.306242220052104,-10.420644596354167,-8.68512356770834,-10.680104654947911,-9.507252473958337,-8.512288248697907,-8.397056022135391,-7.636620312499995,-8.601586360677118,-7.982746842447921,-5.515508300781247,-7.897321907552076,-8.058943717447926,-8.062088020833341,-10.325272656249997,-9.705536067708351,-8.597447851562505,-9.312894954427113,-8.789776660156248,-10.281294531250003,-10.339999804687482,-9.568768098958348,-8.197776595052082,-10.415934602864587,-8.992449414062518,-8.527861848958317,-6.987529329427087,-5.933936100260419,-10.498148372395837,-8.614709537760403,-11.738732421875014,-11.511507649739604,-12.297820312500034,-9.38177701822918,-7.424560253906239,-6.264930175781246,-5.5984455078124915,-6.532408593749992,-9.179943522135412,-6.134805859374992,-8.48773486328126,-8.0914216471354,-6.7310069986979135,-6.372425618489594,-2.951666536458333,-6.112588411458351,-7.711989648437492,-8.317973763020843,-6.359971191406267,0.4782793619791686,-8.613409082031245,-7.923127701822914,-3.40149993489584,-9.149381835937497
1.0,16.0,3.0,-32.44151210937506,-26.93546380208332,-17.010356119791727,1.7333375651041678,-11.764986718750015,-13.848939941406217,-0.8898348632812466,1.0290255533854158,0.8696473958333345,0.8205138020833341,5.363222493489583,6.362601399739595,7.531567545572924,1.8640082356770844,0.4990734375000006,3.3071247395833328,6.296127897135392,8.036284114583335,5.13655768229166,0.5083581705729162,3.8577159505208365,3.947569921874988,3.820749251302074,3.2621752604166723,4.945940299479175,4.438205957031246,-1.2749722981770801,5.282314160156242,4.125881738281237,5.681281054687495,2.1942279947916643,4.960517675781239,-8.338169791666655,-33.261854264322906,-24.567660123697962,-14.595950000000025,-3.9234579427083296,4.94632027994792,3.5833114908854093,-7.726082128906246,-16.057559082031272,-25.100617382812448,1.3519511718749972,-11.795970019531268,-1.5504073893229184,5.184447851562507,3.0088361002604205,2.8832230794270877,-0.5536379882812493,2.7348618489583245,2.4675664388020815,1.3178527669270852,2.4643763997395816,7.513244759114586,4.505873404947921,0.34773776041666987,4.0341192382812485,8.893537923177082,5.098010253906242,3.3996067057291666,3.376926985677096,1.9833241210937496,3.4408791015624995,5.089382291666668,-8.798775553385406,-23.762889876302065,-6.815154752604163,-1.4006585286458322,66.09110771484379,4.0456982096354155
1.0,21.0,3.0,1.1962997721354232,4.858956412760415,6.544774283854166,8.732699414062491,6.902942350260415,5.227013736979175,8.052499544270853,6.209537174479178,5.601056933593746,6.541528190104169,0.9838025716145834,5.9767100911458355,8.098440852864583,9.24613899739583,4.6353821614583355,5.578514225260424,7.583784602864597,10.123756835937488,8.678545182291655,10.896234863281263,8.8253240234375,8.202992154947923,7.889060351562516,7.11444342447916,4.3340619791666635,9.577151790364569,7.802864518229163,6.182104296875003,7.198264355468769,8.762922330729161,7.994985188802084,6.1039334309895885,4.090556640625004,7.703142578125001,5.424496126302077,13.269679850260424,5.44849147135416,4.912169205729149,4.550804720052083,9.790473079427064,9.938541113281238,7.051564257812518,6.026521907552087,11.012462272135423,11.197999804687496,7.2862189127604085,5.448665527343749,7.217266796874983,6.473268489583319,9.73534814453124,9.609400716145837,6.001897460937509,6.770193196614571,8.880953613281248,7.3333666015625205,6.435123697916665,8.332723079427074,10.633332063802087,6.724959016927087,11.039524804687497,5.925699772135407,7.468713053385417,8.58924716796874,8.041134602864583,8.474865234375018,5.108750618489581,2.062104069010408,7.553476855468742,7.863555859375011,6.723676985677098
1.0,10.0,3.0,-1.7529534179687554,1.325659570312501,-5.110769726562509,1.8141013997395838,0.5490581380208529,-1.5886638671874946,3.5846969726562636,5.606132649739581,5.606418229166654,0.6567952148437474,2.6075048502604146,3.6698303710937528,1.8899756510416734,3.8566278971354073,6.140414290364567,5.297041015625001,3.359874576822911,1.1226513997395824,0.2247852864583305,5.19345605468751,3.9672603190104225,4.256293359375007,4.704757747395825,3.5925277018229074,-0.4616291992187503,1.6490926106770811,6.926460319010434,-0.06888776041668104,3.518538411458339,3.710304850260427,4.991321647135412,3.346590950520832,-0.9457499999999929,-2.6425552734375075,-0.18688105468748195,-1.7531110026041723,0.6960918619791748,4.288555403645828,-2.533627441406249,-3.15242965494792,-1.8498382486979101,0.24462347005207452,2.0287193033854174,-1.9037662760416725,-2.8080931640624995,-5.245754882812493,3.5569132161458437,5.029919205729172,0.4875120768229179,2.320328124999999,6.32283128255209,2.483919986979168,3.5591389322916673,-0.29745485026042157,2.5747842447916693,0.3405840494791567,3.0802730143229167,3.194496126302097,3.5164156901041657,-0.24871819661458364,1.8029849934895799,3.2673080729166646,3.7280346354166602,2.4587922851562483,8.32819335937501,2.827672753906244,-1.2388126953125043,3.029801302083335,6.677773600260398,3.6254486979166813
1.0,12.0,2.0,2.477904361979166,-1.1557225585937492,-0.4270939127604177,-1.4962066731770818,0.3891073242187451,-0.9489390624999872,0.16098284505208285,-0.7007894205729156,-1.0321748046874983,0.20651943359375255,5.09363388671875,-2.0966260742187495,1.9607228515625026,-1.2811596679687594,0.3460963216145842,-1.1420834635416688,-0.6811281901041594,-2.1501688802083376,2.04446005859375,-5.2052030598958465,0.05108746744791607,-2.0070374023437543,-1.7953255208333312,-1.5174160807291701,-1.3863157877604237,-3.6077981119791716,0.8193241536458317,2.0320670898437485,-0.08044651692707923,0.365875325520832,0.4247006184895807,-0.04887532552082829,-2.783956250000007,-2.928002148437493,-2.8708887369791545,-3.2325931640625054,1.858771158854167,-2.641414062499996,-2.4053459960937507,-3.201123209635421,-5.751891471354178,-4.1599944010416765,-4.7311730468750035,-1.4198290364583317,-3.8671217773437463,-3.4017374023437505,-2.4623679687500024,-2.248890787760407,-2.3258538736979233,-5.06294264322917,0.04674215494791465,-2.424216764322912,-1.8844327799479093,-0.5562585611979203,-2.349921809895831,4.753694531249992,-1.4165456705729147,1.352577408854165,-1.5059447591145865,3.0802663736979166,-2.9723959635416555,1.4339133789062501,-1.2258925781249954,-0.7534977539062456,23.560170963541612,-1.0664675455729205,10.36827203776042,5.140133723958342,3.9829233723958275,2.4513506184895797
1.0,14.0,3.0,-10.770372330729147,-6.56362705078124,-6.785461718750008,-6.148555436197927,-7.53179322916666,-6.938070930989592,-2.1223116210937487,-0.780549251302083,-0.9572503906249992,-8.112037499999998,-7.130773697916656,-1.873056477864582,2.2773158528645854,0.07737207031249878,1.3733691731770818,-0.31741041666666764,0.9038286783854174,-1.559719986979169,3.4499597005208376,-2.5223052083333304,2.8975334635416634,0.041400097656248414,-0.016099772135417717,-0.9174369140625008,2.0147649414062534,3.388673502604164,-2.634648079427078,3.618452441406271,1.4016501953124927,1.6730560872395823,2.062421321614584,1.8330511718749998,-5.955296744791672,-8.702093229166678,-11.369949381510422,-10.70584902343751,1.5964797526041792,-5.018111979166667,-3.8934119140624968,-5.141857096354156,-6.952294661458324,-6.051181640625004,-3.513746419270831,-4.976031249999988,-2.4294364583333357,-6.8746484375000065,-4.452155273437488,-0.32449781901041674,-3.9158784179687482,-2.129068326822917,1.29917376302083,-1.569731152343743,-0.5028917643229175,2.568221386718744,0.9525745442708334,-2.4803204101562537,1.8820592122395876,0.06463789062499273,1.0712263020833335,-1.266404296875001,-0.17655817057291623,0.3991423502604185,2.0788675130208314,3.183756152343777,-4.849776985677093,-5.5086689778645885,-0.7444805664062509,-3.5474476562500024,-5.221549609375006,2.0481646158854203
1.0,18.0,1.0,-5.61077916666667,-6.51155393880208,-8.676684700520818,-4.658711523437495,-5.6519079752604116,-9.272477246093755,-4.545749902343752,-3.535669042968744,-3.326099446614587,-4.071672005208323,-2.660781412760413,-3.9002611979166684,-2.187727604166667,-4.03305182291668,-2.1002963541666744,-4.896399121093766,-5.831622623697904,-5.7744591471353965,-4.09095299479166,-6.113456477864575,-7.731199739583336,-7.369323046875024,-7.173147591145825,-6.264195930989584,-4.816937695312516,-2.759652734374996,-7.6394693359375125,-7.007467610677068,-7.369070084635404,-5.989229785156229,-5.960282552083345,-5.980207259114565,-4.3130758789062416,-0.4655740885416662,3.7323430989583293,-1.215184798177078,-5.402519986979155,-6.509246972656258,-4.437049641927091,-1.2573578124999956,1.8998098632812592,0.6543104817708368,-1.6044594726562638,4.293352864583332,-2.781776692708321,-8.219208496093765,-5.875322395833311,-6.53562337239583,-2.274600065104171,-1.8659272460937502,-2.4973289062499995,-3.0255886718750182,-3.7908544270833424,0.9932041015625014,-4.782617122395826,-7.824485416666653,-4.820839713541656,-2.274689062499991,-4.066503841145839,-2.424607845052098,-4.75634915364584,-6.942761263020821,-4.420909342447919,-4.087911165364556,53.50761132812494,-21.068868066406203,12.243837858072913,8.410979589843759,-15.790473014322913,-2.5662458007812456
1.0,19.0,3.0,-1.7566779947916664,-2.1195092773437514,-1.5025467122395824,2.395986295572919,-2.4014410807291644,-1.2236183268229162,-3.107144238281251,-4.349296484375006,-4.560179394531244,0.8945511067708333,1.095202050781249,3.704191341145831,3.514432552083335,-1.7976446289062469,-4.00287307942709,-4.406641373697918,-2.296385156249999,-4.400056901041665,-1.040171386718755,0.34949772135416673,0.13717591145833083,-2.5626674804687455,-2.4488998046874966,-2.775196126302085,-5.652010904947905,1.2724924479166693,-1.0424831380208321,-2.7908649088541746,0.4361905273437503,0.5594531250000009,3.0849276367187546,0.8722802408854154,-0.9553998372395865,2.6094562174479106,2.8850706380208244,4.665282649739591,1.4043229166666664,4.426855501302075,1.8883758463541638,-0.7547294596354166,-0.961720345052078,-0.8358839192708342,2.07265576171875,1.3866259440104152,1.8596305338541672,2.2960931966145823,1.63845045572917,4.709851725260417,2.2901193359375,1.2037099283854167,1.2410638020833349,-0.749419238281249,-0.9760188151041694,-4.95029013671875,0.37966722005208564,1.6529429361979169,1.275609895833334,-2.307997298177086,-1.4466370768229149,-1.5582986653645865,-0.5942430013020839,-2.2494362630208347,2.386898404947916,-0.2246976562499975,5.841532096354161,0.022911751302084175,-3.894420768229162,6.710126334635433,-3.809721484375004,0.23425927734375096
1.0,20.0,1.0,3.1139043619791686,5.6028453125000075,2.9816598632812514,1.0663327148437465,3.325398697916686,3.623809570312499,2.3174173502604183,-0.044279850260416274,0.014982486979165799,-0.0038737955729167,1.5154807942708368,-0.7673557617187486,3.734647460937493,-2.752904199218749,-4.029981380208338,-3.470478059895827,-2.8022722005208323,-2.960775455729161,-0.2943150716145853,-0.5036171875000005,-2.9848508463541665,-4.394510872395835,-4.406151399739579,-4.145483691406237,-5.707246191406245,-5.121104850260415,1.4837097330729183,-3.679610774739588,-4.269321842447924,-1.3886128255208352,-2.0751326171875006,-1.6012816731770847,-1.1141368164062515,-0.41034726562501184,0.6296266601562814,-1.0363011067708319,-0.6770037109375,1.546462760416668,-5.6262479492187545,-4.683242545572915,-3.0150874674479162,-2.47601481119792,-9.112451236979144,-4.500499739583332,-2.7989718750000083,-1.5671633789062467,-0.007994270833327112,0.10982226562500443,-3.583051041666664,-3.9141005859375064,0.43370651041666247,-5.394522330729166,-4.733997460937489,-3.7158060546874965,-2.270177897135418,-4.413733951822919,-3.098151920572919,-2.3778319661458336,-5.23123626302084,-6.134992513020834,-7.189202506510423,-4.247744824218756,-3.750282877604164,-3.262721647135416,0.8576630859375008,0.17059785156250182,4.19199384765625,-2.397525878906252,1.8522947265625043,-1.1890045572916639
1.0,13.0,2.0,-1.7770193033854154,-0.10840234375000023,2.10376829427083,-2.1370468424479214,1.4456212890624967,-2.7900641276041704,-0.44564016927083694,1.6231194335937553,1.5016240885416678,-3.819684830729166,1.3152122070312506,1.2977888346354143,1.0716829752604176,1.2244060872395683,-0.08098232421875325,0.7163597656249939,1.6957852213541704,3.3476198567708177,1.0875861328124987,5.808783691406236,0.5716418619791659,1.1310975585937564,1.2340361328125056,-0.47314433593750155,0.6177902343749977,1.505381054687498,0.948902050781248,-1.4875853190104167,0.5351736653645744,0.8168661783854231,1.782251562500002,3.3720884440104246,2.474654785156251,3.4813592122395884,-0.876160546874997,8.111540950520846,0.9722330403645741,-0.1303008138020892,1.2312497395833264,4.8248703124999865,7.426741764322909,2.3271062825520734,-0.34371028645833146,4.0331388997395665,3.121176985677069,6.446486458333323,2.191436523437504,-0.02107272135416234,5.983117903645823,1.897691015625005,3.08905335286458,0.8132010091145695,2.845689811197932,4.9447258463541734,0.7755080078125,2.8335482747395866,1.24714964192709,-3.2094127604166647,-1.3035017578125043,0.6202561523437623,-3.946252669270832,-1.0053486653645882,1.3628579101562517,1.587714355468748,95.9310388997398,-41.94801569010413,4.403724055989593,17.08908977864581,-17.165761946614587,10.419435286458311
1.0,15.0,3.0,2.442938639322912,-4.959882519531251,-2.352381315104164,-0.46035514322916044,-2.324681966145835,-4.94596826171875,-8.992888085937508,-5.14501686197916,-5.280400390624995,-0.7548882486979146,0.7420028320312569,1.6527885742187431,1.7390635416666573,-3.9432796874999987,-4.512351399739586,-3.189367643229172,-0.9149276041666758,-0.4241833333333353,1.5389608398437618,-1.6340682942708353,2.6946976888020795,0.6560668945312463,0.48849016927082506,2.443063802083333,6.323083919270843,1.4820333007812347,2.5364850585937533,9.571168912760411,6.769140234374998,7.228132779947932,4.877968261718759,3.2576258789062575,0.4833804036458363,3.9996254882812217,8.664454427083358,1.21454150390625,-3.3737793294270904,-4.546769498697912,-5.219116992187498,3.095362272135407,5.077931770833336,5.389659570312502,4.526353548177084,4.89886285807292,5.398355305989586,-2.988565104166676,-3.3497040039062473,2.2114658203125015,1.3639101562499978,4.945836458333321,2.3488937825520826,7.187933040364591,9.633191178385431,10.898743164062509,6.206687109374994,5.472326334635415,5.208353548177074,7.076935839843753,7.234753743489613,10.172016210937494,13.103738574218717,11.510677734375022,4.743379329427098,7.51776318359376,2.6674979166666706,0.09640058593749022,-11.666759440104164,8.765064583333322,10.972012044270839,1.8019806640625022
1.0,17.0,2.0,7.1003569010416685,1.227410058593749,-0.373063606770838,-6.334270833333338,3.9796287760416855,-1.5867325195312498,-4.16249309895833,-3.160380273437505,-3.243108854166673,-8.78177203776041,-12.146964973958333,-4.181680794270835,-4.309478059895834,-2.656452962239582,-7.34741982421876,-1.219551302083334,-1.848278743489586,-4.87887317708333,0.8344401367187441,-4.485338932291658,-0.5132299804687496,-1.43434228515625,-1.4316171549479126,-2.5697843098958333,-1.2689878906250034,-2.1581563476562518,-3.2046235351562475,-5.32225901692709,-1.8103772135416651,-1.7032450520833338,-2.3023299479166695,-2.157873828125,-0.9849708007812524,3.9401481119791657,6.075331087239589,7.618247102864589,-6.35903346354166,-6.397327506510404,-11.5765216471354,-4.459919986979158,-2.420442773437503,-5.565101855468753,-6.783396940104178,-6.189394986979184,-9.821215429687506,-8.786804199218743,-6.480077766927077,-7.1250033528646,-4.56939980468751,-9.606553027343745,-10.330591829427096,-6.015857942708339,-5.37297522786458,-9.129064127604169,-3.5650245117187485,2.2983419921875075,-1.2320468749999993,-5.054739453125004,-3.626807942708338,-1.467660872395833,-6.401470605468756,-5.537762076822907,-1.3481004557291651,-3.13101848958333,9.902976302083335,2.452122721354173,0.34047692057292495,-1.3023770182291645,2.4636462565104233,-0.8623877929687499
1.0,17.0,3.0,4.826675260416661,6.130569401041666,8.236392122395822,11.209099772135417,0.5411371744791629,3.794672526041676,1.715205403645834,4.790271940104164,4.806342871093751,3.9562393229166624,-0.2672464843749991,2.747168749999997,2.6893382486979145,5.46524521484373,2.79140224609375,3.030954524739586,3.139464485677076,-1.5321079752604188,1.1545435221354183,-3.2069350260416614,2.1994199544270843,4.230792317708339,3.925540104166665,5.02541393229167,2.054552148437502,1.4146933919270845,-0.08377773437499676,5.248772460937481,3.5815778645833336,0.058093847656249864,3.4108036132812454,3.6297959960937543,4.37661194661458,8.024356315104159,11.68515885416665,6.4395032877604,3.669826269531256,4.344861783854171,9.534971061197924,3.5201500651041626,5.938364127604179,6.598245084635411,3.3669493815104192,4.757104329427089,5.315192252604159,6.62557565104168,5.0012791992187475,4.803673632812495,4.671388997395829,4.210375813802082,1.8805066406250017,4.078359244791668,1.6801471028645791,5.069527050781252,3.023156542968751,11.279223014322923,2.2180304361979153,3.3676343750000037,1.3522732096354153,0.12935468749999982,1.7997868164062483,2.782693196614584,0.7241000976562503,0.8014685546874998,2.136441471354162,2.2494339843749995,2.1582499674479156,0.5036276367187513,-1.3267070963541656,0.8656319335937498
1.0,19.0,1.0,25.399296386718763,30.883807486979133,29.616879166666724,11.983266959635424,31.063830761718695,22.897443457031216,6.894388671874981,8.747761165364595,8.684005826822935,12.728827864583321,14.35196360677081,11.190234440104197,15.037497330729169,14.000255045572922,8.833000097656258,7.082743294270844,10.658824511718736,13.603217089843774,14.01394443359374,14.91989589843751,14.837712044270871,10.017908235677071,10.432834375000018,5.3738511718749935,12.819354850260419,18.861614127604145,10.064580436197913,9.868904296875018,11.176668229166673,13.458159244791636,14.927855436197925,12.969614029947863,14.140156347656225,23.3084242513021,32.049085546874984,22.467788541666668,18.75875152994794,9.537808886718762,6.675386458333314,5.970047786458324,11.88548613281249,5.990206608072924,4.116815071614593,8.989827115885413,6.459897135416665,10.869924609374985,10.961623958333321,14.41841819661461,10.825181738281254,9.480142154947908,9.44266793619793,6.440973632812496,8.262484798177091,9.437893587239587,10.840180501302084,15.194520898437498,12.683201953124966,11.082440071614563,10.680131542968752,8.23718317057291,9.584184212239583,9.971040104166663,11.982036425781248,11.41233815104164,11.509470279947939,9.250869986979177,1.5781087239583382,2.961199674479165,7.22775247395833,13.395409374999984
1.0,20.0,2.0,-3.6147531901041727,0.8560948893229181,-2.015277766927083,-6.30289860026042,-5.896079264322927,-5.987944335937494,-6.070934700520822,-7.065420117187489,-7.1125085286458365,-5.232222363281241,-10.562237727864579,-10.489644759114569,-6.111340592447917,-8.463797265625013,-8.160341341145829,-9.540994303385423,-9.211495540364583,-8.826574609374996,-10.675024674479154,-13.986327636718753,-10.841185026041677,-10.341081282552073,-10.211038183593757,-9.317231347656266,-11.625972493489561,-10.799498502604159,-14.880281640625013,-10.685758919270812,-10.889526041666649,-10.716199381510402,-9.403973144531246,-10.086467187499998,-4.41528460286458,-4.305150488281244,-4.138024967447911,-3.905750553385421,-8.571100813802087,-6.907414062500009,-7.0775600260416764,-4.489067447916666,-2.6229830729166657,-2.6818448893229134,-8.098267057291666,-0.45235113932291765,-4.34894938151041,-0.9221330729166675,-7.77432581380209,-9.277657975260427,-5.0085418619791655,-5.451826692708341,-6.892549479166669,-7.391470182291658,-9.30731402994794,-7.464613704427063,-8.198944824218747,-9.420869205729193,-9.218578287760392,-7.586842675781259,-8.410452278645828,-6.809594270833336,-9.957291927083316,-7.518733105468737,-8.767792317708347,-9.137960644531262,-12.671239095052096,-2.4836069986979195,-5.071087825520831,-5.383435970052091,-3.304446354166672,-10.539652962239554
1.0,11.0,2.0,-1.8919518880208308,4.658618066406254,0.6092051757812512,-0.6998074218749991,1.7635805338541684,-0.46140377604166516,3.6959229817708317,1.5358326497395856,1.7065358072916708,2.7690898111979236,2.0066895182291726,-1.4550924153645866,3.310956770833338,0.34101992187500213,2.5896342773437486,-0.7319916992187494,0.17824661458333632,0.8867737955729161,-0.8629855143229165,3.2456725585937534,-1.3714585611979109,-3.2030436848958277,-3.0490833984375048,-5.345948828124989,-6.833183496093753,-2.599174837239584,-7.197371321614585,-8.63681738281249,-6.061759309895826,-4.335788411458338,-3.8951802083333384,-2.732536035156252,-0.5101013020833335,-1.5911102864583346,-6.5084301432291545,-0.24068841145833086,1.155198535156248,2.6182354817708346,-0.7897609375000009,-7.672007649739565,6.948784114583339,-0.4421608398437486,-2.6349942708333294,-5.771052246093742,-0.948620670572916,-1.689126269531249,-0.483999934895833,-2.752599934895835,-4.015934179687501,-0.3147835937499987,-1.67088427734375,-6.302125976562492,-4.654471289062498,-4.2433377278645645,-3.3600605143229174,-11.434553580729174,-4.208136751302076,-5.32722106119791,-4.107581445312497,-5.30733105468748,-12.18979228515627,-5.826858072916669,-3.136995312500005,-8.580878287760429,10.281401074218762,-4.973259635416663,1.3366700195312473,2.426361588541671,1.6467273437499965,-2.0188402669270826
1.0,12.0,1.0,8.452724479166656,3.390608951822916,9.281480110677068,6.022450618489581,10.331505338541684,11.98935364583334,6.828246451822902,6.102689908854168,5.708212597656247,8.106835188802068,10.9550976236979,6.946907161458335,7.69718619791666,6.722631119791667,3.616527343750001,2.9124616210937533,5.114318912760411,6.987333626302085,5.442158756510416,3.343063444010417,4.9035732096354145,4.092417252604165,4.196408561197917,0.13275657552083123,3.4432759440104186,2.993431640625001,4.664753776041664,0.6464931315104114,2.4653004882812506,3.6915448242187474,5.12455283203125,5.660578906250001,7.846662825520839,8.247357454427094,5.442475260416661,9.67761100260416,9.955505143229189,7.498807454427081,9.861861035156261,10.284283203125009,8.024959082031243,7.531877473958333,6.002208821614595,4.285179036458336,6.590364778645839,7.048179654947908,8.916998111979165,4.173387532552084,4.738735807291676,5.9862876953124955,3.0718838541666713,4.096296028645833,3.801128808593761,8.355054361979175,6.918837792968738,7.9575512695312325,5.2776105794270896,6.502474055989584,5.190654166666676,2.4744165039062476,-0.3798438151041669,3.012425651041662,4.66182067057292,2.119522623697915,5.344318619791661,-3.4611828450520767,5.818187239583327,0.3062527343750018,-2.065128320312499,6.666895345052091
1.0,15.0,2.0,0.2461229166666645,0.984239648437502,1.7355088216145829,3.9544841145833334,3.6553277994791658,2.0788965494791736,2.7686042317708353,-0.062086718749997605,0.18371471354167115,6.822348177083318,3.638307324218747,3.857953483072922,2.771258203124999,2.141518424479164,-0.04722200520833433,1.6700870442708309,1.2495237630208222,5.658677701822916,2.5836607421875004,6.307669010416664,0.6361523437499982,1.3983438476562526,1.3543526367187482,0.6286636393229137,-4.234526236979141,1.743478125000001,-1.472534733072919,-2.701309635416671,0.06412412109375693,1.8969124674479179,0.480151269531256,3.9240578450520847,1.5109943359375002,1.3782830403645836,0.8481786783854154,0.11783876953124561,7.578086197916657,3.8108647460937526,5.256743522135417,4.241215006510421,2.02971904296875,0.29859560546875563,-0.14228037109375077,1.754316536458324,3.934966829427079,4.866383756510415,5.051087044270842,5.873433919270827,2.7297359049479177,3.59577613932292,-4.736696809895835,1.2303987955729132,0.7232790690104194,2.344988834635412,3.691794270833338,1.1975760091145824,2.645369921875004,0.26438509114583425,2.3903063151041746,2.928524316406254,3.063046907552083,0.9355169270833334,3.004118391927085,-0.6907305989583161,13.318256738281248,2.8933591796874953,2.335526953124998,-0.28289358723958546,2.080438509114581,4.433180501302082
1.0,17.0,1.0,8.160071223958331,1.5139678385416662,3.5074292643229246,11.216686197916635,6.385552473958318,11.907149902343754,4.788450683593758,5.707967285156247,5.173086523437505,8.872404557291665,6.468802897135418,11.33121438802083,7.737399641927065,5.729712011718756,3.6348000000000007,3.0229822265625024,5.1016226562499964,11.376177506510428,5.195351953124981,0.8764527343749974,3.1901583333333345,2.8393481119791715,2.9802867513020748,1.676920605468748,0.5857349934895814,4.693456250000013,1.5008773437500125,-2.019117968750001,2.473200846354159,5.040682194010408,4.357322395833327,7.500056608072923,8.057465657552099,9.146911555989579,9.268988378906245,7.4439685872395955,9.324550716145838,9.05295598958333,15.652288802083318,9.969482682291664,11.212537858072912,8.572642578124997,7.425575944010405,14.721454947916612,14.673561653645825,15.103566634114562,13.055629361979143,9.33903675130207,10.442220182291676,10.076692708333333,9.425935970052079,8.519039485677078,7.107073795572919,3.0207237955729203,8.225172623697935,13.11424339192705,5.403746028645844,6.143290266927072,6.508982682291664,2.1784505533854146,0.942116406250003,5.0796665364583395,4.420642740885416,2.7901361328124943,9.53472815755208,5.43873522135416,3.589733333333348,5.3113871744791625,7.226276171875019,9.096882682291655
1.0,18.0,3.0,8.611864876302086,4.955174837239582,8.529632714843736,5.634730208333348,7.451077376302083,13.103345605468716,7.937036946614552,6.364845214843755,6.200299609375008,8.758663118489567,7.741306249999988,7.018967740885412,11.394999967447935,7.613388802083342,7.09306966145833,7.3885938802083295,8.148565787760424,10.248186848958325,11.69222405598959,12.23484208984375,8.254251888020855,7.200230957031246,7.2504486328125,6.470489290364583,8.034995410156265,10.943816015624988,8.41594899088541,4.808540527343751,7.026669628906247,9.464683333333326,8.321952636718766,8.9702661783854,6.8918205078124934,6.3192274414062455,5.262658203125001,5.782137792968758,6.179762825520835,8.119787825520818,6.588470507812521,4.76031852213542,3.7584382486979266,4.371575553385421,4.493152311197917,5.646247721354169,4.232926302083345,12.817302799479188,7.588697591145834,8.476726171875006,8.224464290364603,3.61978893229167,0.9091050781249996,4.942712239583311,4.581616080729167,8.230119335937507,6.422960742187505,7.501859993489589,6.608166210937486,6.64415878906251,6.592264095052091,6.353706445312504,6.136490690104181,3.6217104817708297,5.459908528645826,8.33760654296875,7.068077962239574,9.836037825520819,8.093144075520849,9.171775716145845,13.249114453125012,9.050906477864592
1.0,19.0,2.0,3.308813248697904,6.136213997395818,3.6683096679687694,-0.4662488281250028,2.4657403320312485,5.283335839843763,0.4240923502604174,-0.20204453124999688,-0.3363148437499981,4.711632682291671,-2.756083430989585,-2.5493823567708196,-2.2823204752604203,0.22550634765624986,-0.426265755208334,-1.779825000000008,0.16112073567708152,-2.9062108723958375,-4.030967545572902,-1.3946599609375008,-2.279214518229177,-0.12098935546875145,-0.2451452799479136,-0.5477127604166645,-3.282904817708344,-1.9725105468750028,-3.0434677734375035,1.0545804687499996,-0.3819917317708293,-0.8214639322916621,-0.2041182291666717,-1.8831805338541676,2.1358464192708317,3.3469589192708367,5.824208789062528,3.060474055989596,-1.3453109374999999,0.1957634440104158,-3.5447873372395886,-2.4895157877604244,0.13916894531250176,2.0604831705729203,2.2188446940104143,-3.047321158854165,-0.34048538411458606,1.2268725911458354,-1.8866730468749962,-3.924903841145829,-4.185395475260412,-3.9296507486979184,-2.411902701822904,-0.916715201822916,-1.9683951171874938,1.7567028971354148,-1.244019368489582,1.4962525390624988,-1.1193202799479194,0.7172356770833387,-1.4822616210937465,0.39438684895832893,-1.6693558593750033,-1.8623507486979125,-1.1966291015625046,-5.144922330729188,-4.5646499674479175,-4.204335904947914,1.9997988281250032,-1.8118474609374984,-4.175073177083358,-2.2400521809895864
1.0,1.0,1.0,2.2005117838541772,-0.1812386067708155,4.90022656250003,-1.7144526367187571,0.4826638997395753,3.8343868489583333,-4.997414941406264,-8.65651865234375,-7.799265625000003,-1.2594479817708377,3.800793326822909,-14.50504505208334,-7.525699739583325,-7.686365917968751,-6.2224867838541655,-9.443374902343734,-12.64899052734379,-11.666704589843752,-15.865190332031247,-13.600320475260402,-14.177301757812467,-12.143566341145826,-12.036744270833362,-10.519348763020863,-12.41589781901043,-16.42380485026041,-13.52098997395832,-10.292030826822915,-14.734468912760398,-15.688413378906276,-13.691947493489586,-17.81816171874997,1.99736266276042,9.646983365885436,1.384227571614577,15.13868834635416,-2.535373828125002,-9.355358528645839,-6.362535384114587,-6.566162239583352,-5.269146126302081,-8.649129296875016,-11.239343196614577,-9.388682942708336,-12.60039391276043,-8.354690657552087,-10.148146875000018,-12.28341165364582,-11.48601289062501,-13.443278385416663,-7.0501650065103965,-13.09921341145833,-13.230455533854188,-10.047384277343738,-15.537377018229131,-13.136178190104173,-16.172356608072928,-15.183990364583346,-15.837309895833336,-13.37009739583335,-11.190465169270846,-12.640070638020868,-16.701598763020854,-14.719981282552062,-10.998277115885472,-23.484430859374996,-8.674078938802078,-14.766578938802084,-35.19013818359366,-17.876927408854144
1.0,21.0,2.0,-4.8697165690104205,-3.4233160807291756,-6.168893945312489,-6.7358793619791655,-7.774044628906242,-6.926277376302092,-6.610180729166667,-5.30140117187501,-5.514561783854142,-8.46189541015624,-6.608559928385424,-6.576348372395824,-2.8979080078124926,-4.442133789062491,-2.978052994791671,-3.7345086263020857,-5.454547526041666,-6.35440100911459,-4.17369055989583,-4.0597130859375055,-3.81963434244793,-4.310049479166669,-4.0201658203125055,-1.6593512695312473,-1.606175325520834,-5.152055240885422,-5.144044368489571,2.84788134765625,0.2588884765624974,-1.6865516601562556,-0.7820534830729228,-4.588561653645836,-2.3616097656250017,-2.245364680989591,-0.29745426432292044,-3.1126431315104224,-4.051762109375013,-8.052465852864563,-10.027002929687486,-8.712668782552067,0.849610872395834,2.36415615234375,2.5530500976562522,-1.5759939778645782,-5.171456901041668,-8.897188671874988,-9.442998209635418,-6.2542012695312375,-7.605007096354165,-6.331354459635409,-2.5101493815104097,1.557624999999999,3.0220382812500017,4.056772330729168,-2.340071158854157,-5.609777799479155,-1.7988799153645845,0.5957510091145831,0.9374518554687484,2.553760644531248,3.5618720052083304,1.1942007812500035,0.18345768229166537,-0.6053760416666712,-0.7161373372395993,-1.5720412760416742,-7.401678548177084,-3.54587373046873,-3.656850325520832,-6.504711100260383
1.0,23.0,1.0,1.6943689453125008,4.983413248697909,6.115237792968743,10.297284277343742,9.847842220052113,9.245931868489583,4.2065300781250015,7.652094498697914,7.531145247395809,8.509077864583332,10.577318749999996,13.187071842447926,12.750989095052093,5.0012755859375035,6.794376171875004,4.289072298177093,4.865706770833328,3.7468941406250083,7.0457922526041665,7.869610677083341,4.7761901692708175,4.701465690104165,4.555632747395829,3.3981329427083335,5.257194921875008,4.570000423177082,0.6714317708333352,4.621840624999982,3.9600565104166794,2.562997526041666,2.641738411458337,5.869102018229157,6.127365885416648,2.543314811197917,-0.8775248372395841,2.2411239583333393,4.952769661458327,10.79598437499998,2.818372884114589,3.1393340820312456,1.4941185546875067,1.9259778320312506,4.366068359375001,0.47340055338541615,3.959505305989588,3.900394759114585,7.264486295572925,5.8356008138020785,3.1524705078125006,6.737645214843752,1.3116234375000029,2.530393554687501,3.3071100260416664,3.9619493164062582,4.0821492513020905,4.503602636718743,4.018373437499999,2.5529020507812574,3.4279527994791703,1.3699861328125043,3.946962890624995,5.19071002604167,4.002216894531249,2.86899173177084,4.757517057291671,-0.0030875000000010213,4.158058398437487,6.3172652669270795,0.8368858398437484,5.575952864583333
1.0,24.0,1.0,-15.919723209635379,-10.740686490885418,-9.607088085937498,-1.7310994140625031,-15.64650839843752,-10.893614095052095,-5.228941894531249,-6.3444200846354235,-5.60833518880209,-6.738604589843742,-15.473442968749984,-0.7214816080729176,-1.3296945963541649,-5.831796419270824,-6.460021679687497,-6.582033919270823,-6.839734114583326,-9.272397460937505,-7.182325813802094,-6.383821061197917,-8.058065494791657,-8.24154007161457,-8.076179785156242,-7.6776701171875,-6.554188020833327,-4.544802376302092,-2.677565559895833,-4.519099381510414,-6.823940624999967,-8.538404296874988,-4.670627701822915,-7.880058528645843,-5.713737369791672,-6.942110970052066,-11.315846061197936,-5.436477539062498,-11.393744498697904,-8.87891165364584,-7.813367089843729,-7.721689029947901,-7.05088251953125,-6.269641927083341,-7.815530631510414,-5.173368164062495,-8.257964029947908,-10.106769466145833,-8.259589876302082,-8.037314160156244,-5.179732161458317,-10.224459993489566,0.20215100911458386,-6.040160872395844,-6.120835644531263,-5.735628385416667,-6.171989355468739,-6.34858199869792,-7.364101855468757,-5.43552740885417,-4.8507139322916695,-5.177951106770828,-7.966171386718756,-6.502360156249992,-6.7390722981770885,-9.431559374999996,-0.0669151367187489,-5.48890979817708,-3.0325987304687554,0.9649493815104161,-3.639839615885417,-8.189776236979169
1.0,24.0,3.0,-17.05252171223954,-17.467555175781285,4.8243865559895545,6.262995345052084,-6.847120247395817,3.0691675455728897,2.9271410807291645,1.9245622395833364,1.9657309570312487,6.959806640625012,7.5104421223958475,1.128623860677082,3.0770802083333266,4.102589811197918,1.750274186197917,2.714146419270838,3.4880309244791676,4.194877571614577,2.0305416666666667,-2.149980501302084,2.8328129231770816,3.5664616210937514,3.3943740234374986,3.76682236328126,1.840459993489584,0.44324957682291505,3.8554684244791666,2.941052343750005,2.087782519531252,0.5966237630208334,0.2057310546875044,-2.0515111979166676,3.17044641927084,-12.496288834635502,-8.755658007812501,-6.500593261718751,2.8726268880208394,1.3040007161458311,0.31821819661458667,3.4702376953125023,-3.5554666341146053,-8.641584049479118,-1.222983789062502,-3.8090139973958164,-0.9580338867187509,-1.067370019531239,0.21440839843750045,-2.4091770182291676,-2.0951306966145857,-0.5829574544270831,-2.86094628906249,0.30056516927083166,0.8023201497395837,-0.6217410156250053,-1.2199910481770837,1.5824055013020824,-1.9928148437499982,-4.461541894531267,2.8262684244791667,3.7129204427083367,3.0759129882812495,-1.7123157552083297,-1.1522965169270758,-0.25553828125000005,-10.730847363281248,-0.552284863281239,2.6791525065104143,2.5481956380208364,-1.097550358072917,-2.826717513020833
1.0,27.0,3.0,19.043422460937535,15.787362239583324,30.498397070312464,11.779850651041654,17.21939778645834,15.440033691406247,4.890631217447898,3.6576679036458324,3.7611136393229216,15.219189062500043,8.701178906249982,9.589215820312505,8.507848079427076,2.9444178059895765,1.465755729166663,0.36165068359375757,2.0750994466145727,3.8124633789062483,3.9881890299478893,6.860529166666651,4.317890559895839,0.6155650390625093,0.46563922526041956,-3.3067721679687536,2.5704486653645904,3.0630362304687733,5.9013268229166504,-2.081933756510418,0.11407519531250108,2.7360846354166646,5.040199707031256,5.142104524739577,13.801122135416662,30.984051139322872,29.145819270833353,37.37552470703127,6.469401041666668,7.263473307291689,1.6242650390624955,8.230216666666653,18.923228808593763,23.186286393229185,1.232465364583319,10.212363574218774,6.07108805338542,7.973092545572881,5.628580533854173,2.860737727864597,6.803156445312489,2.212837955729173,4.678692675781243,1.1598979817708257,1.7934359700520626,-2.2451552083333293,3.224449609374998,10.027241829427064,4.852463671875026,2.5771196940104146,2.511440917968767,-4.09784150390625,-1.7791148763020777,0.4049027343750047,5.881823274739588,0.2619127929687454,0.7543416666666612,-15.573228450520823,7.636320735677095,-6.240659082031246,-14.42411012369792,7.81220813802084
1.0,28.0,1.0,11.09524433593751,11.506713606770864,11.750517057291658,14.304128417968728,15.875384407552124,16.478075390625005,13.392645312499992,15.411255436197896,15.702280436197947,18.335035123697935,15.589917024739576,13.699698372395837,10.681422916666667,17.901493815104157,16.24633815104166,15.453541666666661,16.230910774739574,17.898400292968734,17.687769824218762,15.593109895833356,16.898805566406235,14.818256933593732,14.788275748697906,13.041544759114563,11.841699153645836,16.63825983072917,15.284606445312464,9.224263118489572,12.180099967447925,15.188157356770828,15.567094368489585,18.0025576171875,11.691748567708364,8.077179329427096,4.509539518229171,6.639092252604178,11.634511523437498,11.824336393229146,8.687370670572916,7.655044042968776,7.890065462239566,8.475960156250022,8.692182649739582,10.49725198567708,10.269756770833359,14.966146744791684,14.63159208984374,12.336066210937505,17.93990006510415,10.624656054687492,14.011063053385392,10.422571061197916,11.098177441406273,10.7097031575521,15.078529850260416,17.156999446614584,15.826174479166683,15.475057649739568,13.608615201822927,11.245615820312501,12.05641494140624,12.68649316406251,16.253874902343743,20.93894261067706,6.968792089843759,10.310465657552093,11.119844986979174,6.970400944010443,8.929878710937494,16.316646777343767
1.0,29.0,3.0,5.339185286458359,5.996411295572901,2.906079492187502,13.944622526041647,2.096014257812502,5.979947721354164,5.946894238281245,6.469941438802078,7.117297558593742,7.429860807291675,15.433448144531255,14.23419345703126,6.672954003906242,7.512149707031262,5.276390527343745,6.376057096354162,8.62156575520835,10.26453997395832,10.898877604166662,15.290557617187455,9.465148990885439,7.332322916666662,7.44824427083334,3.2410000651041635,8.721773567708336,12.454833105468758,8.233551334635417,3.7457422526041655,6.990290527343756,7.831298958333325,11.09296266276043,10.36320631510416,6.431760351562499,12.103800065104176,14.32965234374995,13.26735432942703,10.67848551432291,8.752814746093742,9.418008170572927,10.46888590494792,17.33232770182288,15.319588606770864,11.903983951822903,12.215663281250011,10.222337662760417,9.047011588541666,11.213300813802093,13.73388147786457,12.696210384114579,8.746990527343746,6.684118098958333,6.893395735677081,8.253660319010404,10.750238151041676,10.234012434895822,12.768996354166667,10.338561458333343,7.766318912760408,9.349322233072906,9.45332132161458,5.667392871093757,9.605396972656264,10.333657454427085,10.398616341145852,29.43853792317712,-5.718851660156248,8.659784342447916,7.104056152343749,-7.131129654947908,12.393382389322902
1.0,30.0,2.0,-4.51546852213541,-3.1300773437500005,-5.210935677083334,-8.211714973958323,-9.598766536458308,-11.984220735677091,-9.515739485677077,-11.183181022135427,-10.83649407552084,-11.781273274739574,-6.134398925781247,-7.033547135416673,-5.964620442708328,-11.145790169270805,-8.737989160156232,-10.10563486328125,-9.96581380208335,-12.989168391927073,-9.859553385416705,-9.62342529296875,-9.294106868489555,-9.908239583333328,-10.142816992187482,-8.167023763020847,-8.743052832031255,-6.73091376953126,-13.567168782552065,-9.665178483072907,-8.586364746093738,-9.103456315104173,-10.143108365885434,-9.414112532552101,-7.255677441406246,-5.196149544270843,-1.5078088216145789,-6.640144108072918,-5.709878808593743,-8.786877506510413,-9.31043457031249,-8.322322265625017,-6.176656184895833,-4.392001855468745,-4.175726953125001,-7.578766796875002,-8.100293554687505,-9.081180013020814,-8.606581738281259,-9.796348307291668,-8.70327574869791,-7.591465462239596,-5.247715787760418,-6.284985709635421,-5.751095572916673,-3.6088047526041707,-8.763382682291684,-12.98612405598957,-8.81418105468749,-9.367433300781238,-8.487472558593762,-4.743186197916672,-5.8878419921874885,-8.728808007812502,-8.356995312500006,-5.677715527343756,29.26245358072912,-6.732688411458322,2.587698828124993,4.473420214843754,-10.486031901041663,-6.743822363281237
1.0,25.0,1.0,12.728531119791699,12.583790559895881,4.359681315104173,-8.860113411458345,10.930422558593753,3.5662693684895768,0.7833261718750003,-0.6117437825520814,-0.6389411458333334,2.1194352539062487,0.16739479166666318,-1.058834798177084,-5.178278613281254,0.2980396809895835,-1.5364204101562429,-4.011243587239586,-4.510446451822908,-1.5352604492187514,-4.462154622395821,-9.163343977864576,-4.471249707031245,-4.1668019531250025,-4.272824153645843,-4.734902343749995,-7.194069173177081,-5.02854218749999,-5.808251822916669,-6.503658951822918,-6.718455794270835,-6.737120735677093,-7.974237044270827,-2.5905065104166725,2.7285919596354167,4.143653320312505,1.1000372721354186,5.0973450846354185,5.352657356770844,0.26599694010416614,0.3733951497395802,-4.912754036458331,-1.5521755208333328,-1.6000278320312475,-2.7244574544270823,-0.4826757486979123,0.422628320312499,-2.190018294270833,0.12119368489582881,0.6427881184895877,-2.287917480468754,-1.083302636718753,-3.1515486002604143,-2.111894921875004,-0.7818676106770851,-2.0788769531250035,-2.1302452473958353,-1.1168667643229342,-4.715317740885413,-1.9362116861979135,-3.490170410156241,-2.986422688802088,-6.093287207031253,-2.97331279296875,-5.81482389322916,-9.107711458333336,-4.1237796875000035,-2.551637499999981,-2.009011686197917,-1.7981822265624963,-0.12531210937502102,-1.4496827799479186
1.0,26.0,1.0,-2.539415429687499,-2.9787906250000025,3.916208235677073,10.738190136718712,6.353851562499997,10.519769889322928,8.00056852213542,9.597603450520818,9.697349641927078,10.449589746093745,10.104807031250006,15.05447981770834,12.25238671875001,9.62079746093749,6.593168619791675,7.316856901041668,10.360522330729188,15.29041601562499,13.472254915364575,12.382898209635421,13.942113411458323,9.375925553385418,9.78272998046874,5.471806933593744,8.15478782552082,13.324695963541684,13.540622916666651,13.120667024739591,11.726582128906278,13.805170605468737,16.134902962239583,16.273422558593765,4.924172200520826,-2.0396444335937427,-9.295547395833326,3.487452897135409,11.269447656250007,13.882872526041668,14.392875390625,2.2326638997395656,0.9720282226562559,2.1356622070312445,6.753526790364585,3.4612728841145857,8.54867360026041,6.69482307942708,14.117440136718779,15.606872688802097,10.7919556640625,8.086872330729173,8.761107942708337,9.668446354166653,9.92013118489584,8.626689811197936,13.71341998697917,12.15181308593751,15.574520345052088,11.767062076822922,12.822908528645842,7.841490820312491,10.942971809895866,8.705577408854168,15.306216243489542,12.614715657552074,-0.8744122070312627,-1.292217285156245,3.784580664062499,0.4556238932291652,4.487886881510415,15.355021321614581
1.0,2.0,1.0,11.442392871093764,10.644155533854187,10.821410156250016,11.965624869791661,11.941649609374972,9.418487597656261,12.775230110677098,14.643598307291589,14.293891601562528,5.844566048177083,13.209577311197954,10.12034492187501,11.619643619791708,11.434337597656302,10.589770833333313,11.97872532552082,9.617929589843767,11.168116048177085,7.606103515625008,11.619771972656253,9.645143522135424,10.54480022786459,10.199412630208311,9.801162369791674,9.079087304687503,8.363512011718761,8.821897656249996,6.050530696614566,6.619201367187505,8.148603873697889,8.756393717447905,8.986988346354151,10.793561425781254,5.737882975260406,6.922457454427087,4.012714615885452,13.066622851562528,12.797309635416696,15.27255891927082,7.565793652343746,8.665069986979207,9.445351595052065,10.988499316406239,12.030772786458334,15.365712337239549,17.22607552083331,14.55615136718751,13.723006445312478,13.03776582031247,13.099354069010403,9.687459798177072,8.964606347656263,8.61591370442711,2.64832880859376,11.728169108072896,2.708148632812501,10.222481477864564,9.162110839843718,9.815264615885459,7.964685677083307,5.13528167317707,9.32681780598957,10.185491276041649,9.717915559895863,13.604215787760397,7.390914583333333,4.940990006510405,8.566119075520836,16.83652047526043,8.867932259114571
1.0,2.0,2.0,7.220272981770833,13.652605273437494,10.832718684895843,18.43708678385418,13.062668945312515,15.654485872395805,12.242746028645817,14.260157910156243,14.128832324218756,13.325650065104163,10.925778450520836,16.148458886718753,10.957228124999988,14.532730078125033,12.159034798177101,12.18672444661457,11.55730973307289,12.136155859374975,10.283228743489579,11.402202408854153,11.232616927083342,10.845966178385419,10.760190006510419,7.898082259114577,14.05262506510418,10.112745638020828,7.787941145833336,5.562393066406255,8.495480208333317,9.643011263020844,14.585405468750048,11.364756184895827,9.523246712239578,9.794461165364579,7.375236555989599,10.239059667968752,16.21780253906252,11.615878645833343,16.48167229817707,13.729840559895832,3.734767545572916,5.916137630208316,3.518474739583334,6.115367285156246,8.177953971354162,14.141334635416635,15.37294514973957,16.03056396484372,12.940312369791663,7.735423437499995,7.89822467447917,6.0571748697916625,7.488734472656245,4.391007910156258,10.365842122395827,14.284727441406226,10.29591324869791,12.277799934895787,8.066303385416697,10.304450781249999,4.627234244791665,9.636808268229158,10.040550911458336,9.059415592447925,73.85570647786473,-22.085711783854155,22.226709798177026,10.491304752604162,-4.5181211914062445,16.238465169270818
1.0,2.0,3.0,-6.524654134114589,-6.04512695312501,-6.94236393229167,-11.021879199218732,-10.995197298177104,-6.732084374999982,-11.322925944010427,-8.52398499348959,-6.912290104166641,-12.005356087239607,-8.517811555989597,-7.526505957031247,-15.253413248697932,-9.22722486979166,-9.081279785156239,-11.594965039062517,-10.881411197916696,-10.881820670572937,-6.4682495768229336,-8.364734082031251,-11.153569661458315,-10.44983193359376,-10.414722005208352,-10.972354459635412,-12.939111783854166,-10.70970100911462,-10.07774199218752,-8.201598079427072,-11.443165559895796,-10.820756673177037,-11.341685611979196,-10.668192317708305,-7.259619986979206,-5.4264074544270775,-10.090893001302105,-9.2584095703125,-3.578918424479175,-9.518464290364605,-10.809536263020874,-10.80247509765625,-15.558800716145825,-11.546554752604168,-10.765050032552052,-8.777448567708339,-8.907465429687475,-10.197370475260419,-10.62057216796876,-7.883813313802082,-11.261996028645838,-11.499326757812485,-10.827378841145824,-10.911313867187486,-10.792431152343786,-8.59888880208331,-10.293567545572925,-13.705359733072925,-10.099801529947941,-8.998840169270863,-9.326866601562495,-6.90270947265627,-11.224458561197933,-8.83764921875001,-10.161287272135377,-9.69185104166662,-12.330306054687549,-12.72246113281249,-5.9233282226562345,-13.554504720052082,-17.52079947916668,-11.549926855468719
1.0,33.0,2.0,10.895282194010425,12.796934928385413,6.080436490885432,6.488122753906253,4.451527148437511,3.223239746093755,1.5559748046875013,2.5072974934895833,2.532784570312503,1.996896549479164,2.95927913411458,6.594738574218741,10.310574772135416,3.949197005208333,3.3795140624999944,3.0619845377604165,5.587832291666657,12.346126953124992,8.604428255208328,6.978748828124967,7.377902571614588,4.545689290364591,4.468043098958338,1.5083293619791645,8.042553515624993,7.345754752604168,6.20454501953126,4.7533370117187514,8.0357153971354,8.9007234375,7.9216852864583265,11.180945833333354,4.291502604166657,11.854228971354159,15.653208007812525,16.682655208333312,-1.5935833658854082,5.868070735677082,5.93719121093751,3.8305675781250024,6.827978222656248,7.625318912760417,6.759433886718758,5.0414251627604125,-13.980583268229195,9.694562955729156,6.6824060546874975,10.51519733072918,9.803585253906231,10.969382389322924,10.024232617187499,5.694682845052067,8.851545800781262,7.02166614583334,9.455918294270807,7.130243815104151,9.864402832031283,7.442242903645827,8.477516927083323,10.017567643229162,8.054046647135422,11.113209049479165,10.462953157552077,7.686237727864587,11.166343749999989,5.3064822265624985,4.043362662760411,13.327203352864588,1.6582254557291736,10.726095833333313
1.0,23.0,2.0,-2.3885432617187514,-4.712342643229166,-1.3929887044270837,4.95964514973958,-2.1321994791666694,-0.11572180989583568,-3.181251432291665,-4.346951920572919,-4.312326009114579,-2.3306189127604156,-4.460688867187507,0.9539997721354351,-0.8739937174479171,-3.185448763020831,-2.60083072916667,-2.7772057617187524,-2.874895442708333,-1.2904004231770834,-1.532316731770833,-5.147781184895829,-2.955514192708337,-1.699249251302084,-1.6486580729166687,-0.38545888671874745,0.0795023763020845,-1.4428934244791674,-2.3831954427083306,1.8053505533854093,-0.018119921875003817,-0.9389973307291651,-2.6826336263020836,-3.2797979817708325,-0.3449782226562513,0.840958723958331,1.3944638346354175,2.38478040364583,-0.10232070312500352,-2.817016601562497,1.008957877604167,-3.922808984374998,0.08557945963541784,4.043288509114584,4.4172073893229244,-0.035593945312502685,3.4448027018229186,6.397476139322921,-0.29696637369791695,-2.4385434244791657,-1.9025685546875009,-0.6583034505208333,1.5087232421875054,1.818743294270842,0.7847342122395867,4.063436979166688,-0.841069173177084,-6.712562141927098,-2.174745345052082,-5.26070895182292,-1.4231635742187498,1.0625068684895813,3.506610481770841,-1.2566455078124976,-1.9619380533854158,-1.3433014648437502,2.9603872721354065,0.5084856119791644,-3.709678417968755,8.803557975260363,0.2510055013020795,-2.389348567708334
1.0,24.0,2.0,-0.1966656249999982,2.92380286458334,0.8064176106770771,2.3147555989583384,4.050836035156253,-3.442175878906269,-2.4804014973958215,-3.2835709309895873,-2.965371679687508,-2.4333297851562503,0.25837138671875093,-2.0659276367187456,2.6267378255208333,-2.091128483072923,-1.7496717773437533,-1.2914761067708398,-1.5203586914062417,-3.6018022460937598,3.167946289062497,0.4482078125000016,-0.11638880208333163,0.505899348958333,0.3761234049479194,0.05145888671874676,0.7076628255208274,1.504214160156246,-0.7666443684895863,-1.2143650065104195,1.1232671874999982,2.1623468424479197,2.2041409505208356,2.074557291666665,2.353948177083333,6.981994596354169,8.76632529296875,9.349798470052077,2.128650292968747,1.3088518554687474,4.278166113281239,-2.5135949544270804,5.485063151041683,8.206288020833329,8.821127832031237,8.316834342447892,3.4192530273437565,-1.623225260416673,2.116084342447919,4.605469531250002,4.556057454427094,5.5655863281249935,8.69431783854167,4.596223177083334,3.9127199218750035,8.12286614583333,4.426121940104157,3.9871974283854197,1.9650849283854204,3.4013843098958376,3.0689338867187477,2.7088692057291675,2.276454134114587,0.8247753255208333,1.8843700846354183,4.703395833333329,-0.6217407226562511,2.5208481445312496,-9.637685188802108,4.414992382812502,-3.204770475260411,1.4759798177083308
1.0,27.0,1.0,12.78826679687498,11.6591286783854,6.2899406901041575,7.788980729166679,14.300149674479139,6.810521549479169,7.1179666015625065,6.601719042968752,6.347540071614577,9.267053808593765,-0.43355299479166837,8.835165201822925,6.849578059895825,8.099688053385394,7.2125197265624985,5.452908723958337,10.033921809895842,9.93149072265626,14.24277268880207,9.873062174479179,7.973017903645839,5.702810644531258,5.675942024739565,3.435285644531254,6.297562011718764,8.734285319010406,4.633973437500001,4.696122949218747,6.685187825520832,9.380939355468753,8.252063671874996,10.465443619791648,2.6141166015624933,4.041621842447928,7.9968359049479085,4.369731380208346,3.687522167968743,4.58099840494792,5.592491959635413,2.877528320312496,2.952668847656254,-0.7137663085937481,1.2334938151041672,2.0177795572916635,5.648257259114565,6.140360058593746,8.376326497395835,8.578565657552103,6.181396744791672,4.407526725260421,4.79696715494794,1.3477098307291693,0.7570362955729167,3.7612598958333336,6.221456380208344,-0.48291054687500834,7.79306848958333,9.358769628906234,4.117684667968751,3.8041726888020837,-1.3968308268229157,4.6294121744791745,8.499022656250006,5.457541959635424,3.5428448893228954,-1.9249379231770833,-0.7081845377604167,-3.785403222656244,-1.3724549479166654,9.679648307291655
1.0,31.0,1.0,1.4728314127604187,2.183815787760428,5.331126106770838,7.5770699544270785,5.082408072916672,-0.7123164062500003,3.517954557291658,2.2608524088541677,1.7297547851562445,3.039720507812508,0.2527193359374978,7.278925878906237,2.6984072265625003,2.0179135742187473,3.4886641276041694,5.8629425455729125,3.8563386067708336,9.019541210937497,5.2403839192708395,6.082830338541672,4.9469778971354215,3.7582755859375028,3.6429323242187444,5.514669986979185,-1.840406705729167,6.24193294270833,1.742914615885417,7.016294498697913,3.9758829101562516,6.8205439453124805,5.238974576822913,4.351621126302087,2.0828594075520748,3.187009016927073,6.300639811197914,0.48575585937500115,3.935005761718761,5.07500641276041,1.6526665690104148,7.242223828125012,3.057746191406259,-3.5366006510416628,3.320817871093743,2.6622398763020736,3.9151918619791535,3.2860737304687455,5.604363509114582,4.389337207031253,5.764286035156242,2.3240046549479145,4.547430794270831,1.703324414062504,-0.22950019531250124,0.6677865885416665,4.625107552083349,2.973650488281246,4.363377929687492,3.058570768229167,4.3228041015625065,4.14232138671876,-0.4977154622395818,5.988432682291674,3.9226845377604103,2.0386720377604113,6.808894856770841,3.496829199218753,3.330375716145825,6.654174739583357,2.996177441406244,4.919049999999996
1.0,31.0,2.0,4.332901302083324,5.591407194010427,7.606352343749996,7.407193587239603,5.478078971354157,2.5847641276041693,5.468233658854172,4.918350748697899,4.63052981770833,4.988460546875004,2.5923013020833365,4.703003613281261,9.386247070312505,6.002997949218758,5.891838183593752,6.279727506510423,6.827936490885432,10.313530761718772,7.076951204427092,8.413110091145839,10.386303450520822,6.741127832031252,6.994408072916685,4.259394856770831,7.817107975260414,6.415512239583333,2.257677897135417,9.380097070312493,7.734067187499991,9.525107389322912,9.177253417968744,6.904778483072907,3.0319168619791625,5.403370735677085,7.160611067708338,11.216441699218754,7.427329654947921,3.6583073242187507,5.509268977864576,8.155055468749984,8.213706640625,5.112644824218749,5.07576002604167,7.936388085937494,6.9835159830729046,3.2958354492187603,4.419767285156259,-0.4091638020833362,6.565615136718748,6.030606217447907,1.8970303710937486,4.680246061197917,5.532333691406239,2.82652347005209,6.6678921549479275,3.9662337890625015,7.981968066406247,6.934721907552059,6.933530468749994,8.888561425781266,2.8662160807291692,7.035027734375002,8.29248496093748,5.987558040364583,11.598548111979156,3.718618098958334,8.921448828125007,8.492399088541655,5.828429492187504,6.124925227864595
1.0,31.0,3.0,-0.2923867513020818,-2.0231063802083358,-2.1476381184895845,2.810309049479167,-4.701982454427081,-2.1720567382812486,-1.6125416341145817,-0.35607809244791766,0.07190091145833184,1.5378428710937493,-4.66541171875001,-0.2319770182291709,4.762707877604162,0.7093194335937475,-2.2952049479166603,0.5808597005208337,0.8753900390625002,5.328204654947915,1.445577018229164,-5.564917740885427,2.2430847005208294,-0.8726104166666667,-0.8172388020833372,-0.6521743164062432,0.3227513671874994,2.4209760742187467,1.9431577799479118,0.2399101236979184,0.8105065755208348,0.7639476888020855,2.0935678385416643,2.1066036458333364,-2.4341107096354153,0.002229687500001595,0.6687030273437489,1.484101855468749,-3.2221661132812502,-0.4701289713541695,-5.474200065104166,0.701288964843747,3.9515766927083438,-0.787467154947914,1.3906021158854163,5.338366829427088,-1.4843223632812494,-1.5807195638020815,-0.7122753580729175,0.46009521484374954,-1.7201962565104194,2.2647911783854178,-0.0264397460937497,-0.2327109374999996,-0.8581381510416629,-0.495553645833333,1.745705501302086,3.3879688802083314,2.1705723958333256,0.36245273437500125,-0.022748111979166343,-0.17700328776041632,-0.686370540364586,2.3653802734375047,2.3597220703124973,3.2493290364583327,0.11707109374999702,-1.5977605143229159,-3.6770805338541632,-4.562470670572923,-5.049724446614578,2.2246888671875023
1.0,32.0,1.0,0.5211121419270859,2.795861328125015,-3.9572206705729176,3.977195670572908,-0.06560823567708525,3.264547233072913,6.543087076822907,6.377262467447934,6.389637630208321,11.852565625000034,10.751032910156248,10.071771516927077,14.191068033854151,5.276803222656267,5.723093880208342,6.954934537760422,8.119858170572927,7.740952278645853,2.4797877929687604,-1.8054885742187476,3.0072876627604175,4.897488118489585,5.17739140624999,-0.1104652994791699,5.5616392578124865,1.556115983072919,1.713894596354179,-4.430141015624994,0.7449270182291703,1.333053157552083,1.7321659179687432,1.412729654947924,0.9699601888020856,-2.4979934570312547,-9.154320052083358,-2.2888764648437503,-3.432215852864591,4.646126920572919,3.990332519531254,-2.5954627604166682,-10.818319498697912,-3.5146045572916704,-4.815117447916662,-8.772463053385419,-1.0680958658854212,-2.930497688802085,4.597351432291661,3.9777197916666585,-0.036481315104172705,-2.7190133789062507,0.8634770833333478,-4.392639811197912,-4.498078776041668,-1.9628928385416675,-1.114565104166663,-0.7822154296875148,0.18372353515624876,-1.6815869791666653,-4.191037890624999,-4.126409863281248,-4.251716634114585,-0.4163954752604162,0.4503444335937481,-1.3496178385416666,-8.277524967447915,-8.294260058593746,0.18563401692708323,-19.321574511718747,-9.143469042968757,0.9075526041666753
1.0,26.0,2.0,-0.8499974934895808,5.966802311197916,-1.7517260091145923,-8.882389355468744,-3.4493154296875055,-9.4780736653646,-8.598443131510415,-4.638231673177088,-4.766768489583337,-7.897751985677087,-10.786000878906252,-12.175427766927085,-7.568251692708337,-7.837965559895831,-4.444721191406244,-6.31200279947918,-7.281020833333327,-9.878732031249996,-7.289867675781259,-6.262882194010413,-6.765284570312496,-6.826395377604173,-6.886818261718742,-6.3624948242187385,-3.56017776692708,-6.287043847656243,-7.818069466145825,-9.945019010416676,-8.154970507812509,-6.501241634114585,-4.526922981770833,-6.161160774739578,-6.130598535156239,-4.652828580729165,-2.257738183593751,-5.322148307291671,-7.660473697916655,-8.264100227864587,-7.993899153645831,-9.110311718750006,-2.949069270833333,-10.565873014322921,-11.220201822916664,-9.077345800781265,-8.833502213541676,-8.968787988281253,-8.59420817057291,-4.363653059895828,-7.343819335937488,-6.735464225260415,-11.566432682291655,-8.625223079427073,-7.6212971028645855,-4.136018880208335,-7.251935742187499,-9.344387532552089,-7.416311783854158,-4.3832881835937485,-7.096807324218762,-4.086749023437501,-9.581498665364583,-4.301243847656255,-8.323499609375002,-7.501376041666668,-8.846376464843738,-5.553117936197917,-8.067232389322903,-7.051987825520826,-6.160152018229166,-6.868301139322913
1.0,27.0,2.0,-9.224676334635406,-6.605573763020849,-13.455391048177104,-5.15488535156249,-13.744383854166678,-4.882718782552105,-1.9869263346354187,-0.7135917643229167,-1.0343793945312572,1.839235774739582,-4.306863639322921,2.5505758789062583,3.949508203125006,-0.2858021158854172,1.8999809895833337,1.62899475911458,2.8771942382812448,8.176718326822911,4.979709765624995,0.6743528645833341,3.2703878255208334,2.3432075846354152,2.0522287434895845,1.4018624023437498,2.88965703125,2.1651374674479187,3.0713601888020765,3.2929483723958293,2.839531640625001,1.6241111328125017,3.9039570638020837,1.7846475260416692,-4.492790397135422,-2.963013183593752,-3.5608509440104137,-3.209485123697919,-5.099411230468745,0.2727426106770851,-3.894083723958343,-3.4136972981770737,-5.78554635416669,-2.4519471354166695,-1.0335185221354182,5.259323795572919,1.931526236979165,1.0296211263020854,-1.5595899414062535,0.6687624674479168,4.5094424153645845,0.6697120768229149,1.4361138346354172,0.8642502929687509,3.7839365234374984,3.689926432291669,2.146508951822916,8.053925130208327,2.7352787109374934,5.626193847656249,2.4939068033854164,7.6495691080729,1.5055531901041654,7.2097009114583415,3.2259619466145906,6.465346940104169,3.0032284505208136,1.6022484700520845,-3.4816181640624997,4.218436783854172,4.846312825520847,1.2745406901041656
1.0,28.0,2.0,3.210147884114584,7.450164160156251,4.628915722656256,6.451455761718744,1.593073958333334,3.103013053385425,4.7038801757812525,4.941764453124992,5.140488183593745,-1.5550360351562462,-1.8468370442708395,1.8549949869791664,-2.4365324218750017,0.8760608398437512,2.8575556640624993,1.4354302734374988,-0.883546191406249,-4.701274251302098,0.7585176106770838,-4.665242936197916,-4.363576009114586,-2.9956356445312498,-3.079563053385412,-0.9851272460937394,-4.58366923828126,-6.584326302083341,-5.899789518229155,-8.847093196614585,-6.7369346354166515,-6.166431901041681,-7.159010644531251,-1.664677832031246,-0.5498880208333342,1.5382568033854163,1.755098958333335,3.888828841145838,5.519367350260423,4.7854358398437515,1.9553915690104198,5.5952836914062445,2.8607532552083357,0.2934789388020843,-3.5265129231770818,0.4643801106770829,2.218680989583335,-1.9651599609374986,2.9421347330729106,0.8502036458333319,1.6561557617187495,-0.7190004231770831,-1.6981905273437519,-3.464342513020833,-4.411165983072913,-6.186037532552072,-2.0055071289062476,-7.238468294270823,-3.7235024088541597,0.0762761393229183,-3.75982057291667,-3.7579004231770683,-7.211674153645852,-2.0524756184895776,-3.6089240234374955,-10.955189680989593,0.6893958333333351,0.8886571289062507,1.879540559895833,-3.9679678059895864,-3.870503483072927,-1.5088798828124992
1.0,30.0,1.0,9.659403157552068,3.560537760416675,5.168851106770819,7.419462304687497,7.947329850260406,7.04122613932291,-0.856069205729165,2.026038964843752,1.770629589843745,7.634108626302069,10.847417089843736,13.969321614583366,8.779955305989576,3.5396337239583366,4.482553548177085,4.442118033854167,7.851150260416698,8.677603124999994,15.531835123697933,12.367970865885406,12.987448079427049,8.894662565104186,8.516149576822889,4.547972884114587,9.478282877604178,11.673932812500013,15.491057324218728,11.879650390625015,11.232686165364576,12.865407324218763,14.971349869791636,12.861128320312512,8.299277376302092,7.925684179687487,3.6998446614583327,10.947056152343746,7.737369042968734,7.787977441406255,4.253824869791665,8.1994951171875,8.48436048177085,2.9417416992187504,2.6262171874999978,7.541196516927093,9.065347070312496,4.388848177083327,9.593168131510417,16.46955891927084,13.280831282552128,8.76233649088543,3.9684835286458253,4.121522591145835,7.283928515624994,5.129627604166669,10.223457519531268,16.595555598958324,13.484456347656227,14.300794791666668,10.882848990885423,5.248951334635424,6.25229993489582,8.348745898437492,13.542301725260408,8.993272623697928,1.8514357421874976,-3.2787343424479087,-8.80334980468752,5.034202604166672,-2.1895484700520806,11.921678352864596
1.0,33.0,1.0,0.30398821614583815,-1.8620561848958317,-2.934208886718755,-2.4376040039062485,0.48934537760417496,-4.20327395833334,-4.761229785156247,-4.977850390624998,-4.791059147135411,-5.596769563802077,-0.9164429036458318,-1.7589080403645838,-4.677586295572911,-3.7272803059895914,-3.085761946614579,-5.852177278645836,-4.862992740885414,-3.916823014322924,-3.080096191406255,4.913818391927079,-1.0072358072916658,-4.271771875000003,-4.4006852864583275,-4.010494498697918,-3.4545766276041654,-4.423293880208331,-0.7878102864583343,-2.2058411132812545,-2.344220833333332,-2.254774414062498,-1.59046953125,-1.7094051757812494,-1.343867220052083,-1.6896012044270776,-1.7986507486979182,-2.024521126302076,-1.192320572916669,-5.810475781249998,-5.19619215494792,1.3728343750000018,-1.7011529947916622,-0.7920632486979188,-1.935199153645834,-6.337856770833333,-3.8928665690104136,-2.660591536458331,-3.233728548177085,-0.6046208007812504,-4.113613053385411,-2.4875267903645812,-3.471027018229163,-4.4809586914062525,-3.8724618489583325,-6.370102083333333,-3.640064615885413,4.241819954427084,-2.6910784505208354,-5.679022526041667,-5.6667170572916525,-7.166611588541663,-3.2483033203124982,-2.2688443033854155,-1.9767739257812529,-1.6730473632812506,2.785351725260419,3.663033723958337,-3.154385351562499,5.656964550781228,6.100024772135414,-0.06580312500000247
1.0,22.0,2.0,0.7103608072916656,-7.5222112304687485,-1.5901485351562494,-5.705489550781253,-4.83674983723959,-4.241404915364572,-2.49298583984374,-3.26160953776041,-2.8388093750000105,-6.753880208333315,-2.590267708333334,-6.378109960937512,-5.750212207031248,-5.07120712890625,-3.9781803385416623,-4.85603697916668,-6.480033593750002,-11.052829622395846,-10.390007356770827,-10.417954785156244,-6.838779329427072,-3.892069303385424,-4.307591341145843,-1.4281179036458402,-6.6366708658854145,-5.895964160156267,-6.552233984375,-5.102454654947917,-5.4032041666666855,-7.978405664062489,-7.886676139322876,-5.577453873697905,-4.036844466145822,-3.5817838541666673,-4.34063391927083,0.15220771484374943,-3.424570670572906,-2.5441486979166794,-2.120840950520836,-5.661167708333352,-3.4025005859374975,-2.464322721354172,1.9156548828124995,-1.6974009440104176,-3.3241416015625007,-4.50531640625,-4.37827281901042,-6.112750618489598,-10.165511881510428,-1.9786902343750026,-5.308283072916671,-2.971730175781246,-5.214885091145818,-2.434795345052105,-5.072908235677091,-0.39704973958333273,-5.698918880208324,-9.318540006510421,-5.714556152343747,-4.70433063151041,-0.3903904947916577,-4.506230175781271,-6.097901204427081,-3.023685904947921,0.640078027343749,0.9240460286458353,-1.2765138346354135,-0.04820384114583574,1.5072297851562517,-4.144437662760412
1.0,22.0,3.0,3.726516796874987,4.937027408854157,1.0452280598958348,0.5512072591145839,2.977265722656267,2.2465644531250057,0.10156168619791922,1.5825883789062543,1.5256752278645804,1.6680350911458406,3.682397070312497,7.855660221354161,-0.014279589843753394,0.8213310872395801,0.2909123372395827,1.1133388997395894,3.0765237955729225,6.0120226562499965,6.784502506510434,3.96781389973958,5.75300485026042,3.1114860351562417,2.787664908854166,1.9628236002604222,5.268311979166659,6.7423741861979165,6.0400367513020905,0.7261701497395895,4.696924055989582,4.402939908854164,6.7271049479166685,6.932758561197921,0.23643268229166425,1.6640733398437548,1.3292804036458323,2.7728967773437496,3.0673188476562454,1.3551771484375008,4.870322623697916,5.81162822265625,3.600825553385412,-2.873765266927079,-1.490527278645838,3.697190820312508,1.8385650065104195,0.854577050781248,3.2443519205729188,6.43737486979166,2.1991243489583345,5.305552018229162,6.701946972656266,2.1250946614583315,3.261390169270822,-0.9897437825520682,5.7558897460937475,9.907180208333324,7.060116601562498,6.325577799479149,5.227814713541666,4.468948274739584,5.314556347656246,5.234536621093766,6.4386957356770935,5.82100979817708,-6.243072428385413,-9.089929654947928,-0.9444698567708283,-7.023417805989585,-5.571401367187502,7.002388997395823
1.0,25.0,2.0,3.2869291666666616,0.7150686197916735,0.21303339843751345,4.660919401041662,-3.88086236979167,-2.2274154947916647,-0.5683014322916665,0.11976985677083275,0.15301819661458477,4.771887988281254,3.3795032552083373,4.252596028645837,-2.1884346028645774,0.6333196614583353,-0.2839849934895852,-0.02890751953125266,0.3311148437499997,5.054403027343757,4.683080598958339,2.162018619791669,3.2063902343749984,1.0896659505208337,0.5527377278645832,0.05187861328124885,0.855550585937499,3.1718290690104296,2.901937174479164,3.0237957682291667,3.5153400390625076,6.031276009114595,10.88915524088542,6.0335669270833385,1.1300432942708403,3.338556054687494,4.8055717447916635,3.3823660156250046,2.353719173177088,7.1574865885416505,2.9295417968750037,4.045945117187494,-2.4326229492187403,2.449240755208336,1.6920417643229182,6.06352350260417,4.799869661458335,9.9912481445312,6.914995182291677,7.575492740885424,8.63936985677083,8.730124869791661,4.307587304687502,4.455744205729169,7.431488964843754,11.190931477864572,6.275393001302105,7.50493750000001,7.239407486979155,7.89987581380207,6.1020770182291715,4.9181023763020955,3.2053262695312448,5.5311649414062485,7.834379199218752,5.46693326822916,11.558405924479148,2.0108088867187504,5.209949609374985,4.461752311197908,1.340462109375,5.463696484374997
1.0,29.0,1.0,-0.2723187825520814,1.712236848958334,-4.941908365885422,-2.790420214843753,-6.357452832031247,-2.272218066406253,-1.850520442708331,1.6244167317708342,1.829434993489586,-7.717581738281261,7.947649869791664,1.4237175781250009,4.29233430989584,2.917329134114581,5.012972167968755,3.3137645833333313,5.317805501302089,1.2381623046874946,5.524006412760418,3.9168150065104084,4.769066992187505,5.3550263346354265,5.159700325520831,4.72819078776041,9.485804036458331,7.042624316406266,13.002723600260426,9.942179459635433,6.894261751302089,7.518585742187523,3.717315201822915,4.865964648437488,-1.3396553385416672,-4.246273437499998,-3.1069734374999958,-6.195758268229178,-4.990978548177081,-3.7212887369791763,-7.416905533854163,-1.105852376302083,-2.5203066406249994,-1.316189713541668,1.4292985026041654,-2.532561197916665,-0.6394859375000015,0.12531533203125036,-3.074462467447915,6.403837304687503,0.7342939453124994,2.8358709309895875,-3.1823033528645905,0.5008438476562473,3.18453014322916,5.434056119791678,3.2137916015625034,13.191453352864569,6.301825358072936,7.028052408854189,5.619600130208309,4.4551675455729125,9.095650390625002,7.7056617513020775,7.5540337890625215,1.0342813802083304,-5.4979060546875,-7.313656868489583,-14.342151920572901,0.012692220052087068,-9.769438671875005,4.229191113281242
1.0,32.0,2.0,1.7929863606770855,-6.9086495768229215,-6.642467024739581,-13.112603059895848,-3.0306942057291724,-8.392673470052078,-14.810091536458303,-11.801326334635412,-11.937686816406226,-11.213617773437484,-16.541779947916673,-11.196964453124982,-12.556742773437492,-10.508401139322915,-11.82437288411459,-10.102905110677082,-10.120640429687493,-7.671593815104161,-12.110550358072915,-10.943439713541672,-8.914386523437495,-7.489493684895848,-7.872714908854164,-7.947171777343758,-2.608025651041666,-8.503438281249998,-8.372049674479168,-11.245083463541675,-8.299616210937495,-9.035434700520838,-8.808704915364556,-11.850957096354167,-8.55298971354169,-5.76082786458333,-2.787943619791653,-4.36150042317708,-13.678440234375003,-15.15387496744792,-17.28744521484376,-10.066431087239584,-7.90790703124999,-7.178260058593753,-15.055145247395835,-9.56333030598958,-15.47173613281249,-11.397276041666663,-17.119009993489552,-15.132540429687507,-13.628540527343771,-12.984140592447915,-9.29493597005208,-10.947384440104166,-10.30258134765625,-12.517095019531254,-11.851722591145823,-13.034684570312505,-10.854520638020832,-8.589466373697903,-11.66822220052084,-5.443837304687506,-5.155801660156244,-13.546706868489574,-10.64043785807292,-11.514639290364585,-17.057084147135416,-16.200557812500016,-10.263890039062488,-15.101643945312516,-13.044318945312478,-12.420937499999996
1.0,25.0,3.0,1.8680945312499826,5.631388020833305,-1.2569748372396286,5.927797916666683,0.5565241861979134,2.916992089843756,-1.6536527018229161,-2.087185839843753,-2.3315310872395787,-1.7016001627604151,4.799847591145836,1.2620280598958316,2.6657615234374963,-2.5811069986979214,-2.7305631510416677,-0.9914961914062522,-0.3135344075520825,-0.06548932291666783,2.9741194986979256,1.5770655924479169,0.4868831705729157,-1.7114511067708333,-1.7077109049479164,-3.944898014322918,-1.599544205729166,-0.5119014648437498,-4.9022498697916665,-1.551472298177081,-1.4670270182291658,0.21801152343749738,0.4633791341145834,0.03965439453125126,-1.524733658854166,0.9823409830728864,-1.9930407226562388,-2.3857185221354253,2.038454622395841,-4.845165787760405,-0.1703150390625008,-3.5674554361979176,-4.110910742187486,-5.821550162760413,-5.558308072916675,-5.308643815104158,-1.7669221679687508,-5.747861718749988,-0.0013370768229172417,0.806291569010416,-3.09044391276042,-1.1266212239583344,-7.27281484375001,-5.537421809895831,-5.603614388020836,1.0880910156249979,-1.4388425130208355,-6.525680598958338,-0.5115214843749992,1.8096525390624982,-1.8433986653645806,-5.816134537760425,-8.04550084635416,-4.684555957031245,-0.2191823242187484,-3.0494415039062552,0.6786399739583292,-6.719527799479166,-3.3396340494791676,-2.436075065104171,-0.07055413411458154,1.6847661783854224
1.0,29.0,2.0,0.6463125325520868,-0.30459960937500247,-0.09860556640625324,-5.2404135416666655,0.5690236002604161,-2.1282103190104156,-5.325026529947912,-4.347544466145841,-4.399112109375013,-0.059654980468752006,-1.3556635091145852,-8.34228557942708,-1.0831331054687534,-4.52146409505209,-4.535216992187494,-3.554985611979163,-3.115799088541671,-7.00097008463542,-4.916985644531252,-5.517670768229177,-3.744414713541668,-2.2077777018229168,-2.688453515624992,-3.6021030273437575,-0.10245556640625296,-1.3510019856770883,-6.696033430989581,-3.0237567708333333,-4.130624869791667,-4.852469986979165,-3.8540634114583345,-8.0857704752604,-3.9956248697916656,-1.7891097005208314,0.5024759765625019,-2.8579228190104136,-4.757988997395834,-3.280340169270831,-6.558271093749993,-10.010240820312484,-7.388430794270814,-4.853176236979164,-7.359792513020822,-7.551351757812516,-8.487206770833348,1.0698991210937379,-7.569868164062497,-9.137606542968784,-6.748472363281241,-6.768246777343745,-5.678522070312499,-6.554310123697927,-2.9175351888020855,-0.866819726562501,-5.945562141927105,-10.26967740885417,-6.048154720052083,-4.66858684895834,-6.300531087239583,-3.2280502278645837,-3.8907465494791764,-5.759728222656256,-5.710679199218764,-4.760600390624992,-7.761651855468735,-5.392304817708336,-10.007712858072908,-6.1440223307291495,-3.1257626302083383,-7.221596289062511
1.0,32.0,3.0,-5.033508170572926,1.9501964518229205,-2.068383203125004,0.8613821614583332,-1.3640213541666537,3.495501627604171,2.3093883789062506,1.0116932942708332,1.5393748372395828,8.055625553385426,5.800743131510422,2.971041959635418,4.65285654296875,4.418017903645826,2.4430264648437396,3.9271348958333334,5.275664746093752,8.257940559895813,4.874907877604172,6.036055664062487,6.216614225260412,4.4239574869791705,4.1176784505208355,1.3947059244791669,5.999202929687499,2.3971569335937493,1.2412668945312402,7.195331347656251,4.915160546875008,2.2430302734375016,5.086333430989591,2.9893384440104183,1.6400128255208362,1.2335864908854186,-0.13703756510416842,1.1019793945312497,2.4569317708333345,3.344356966145836,4.460640527343756,-3.183280957031242,-2.3498924479166674,-5.231882194010409,1.9283127929687496,-0.3172756835937534,1.6410254882812512,-0.8139412434895871,2.848769108072913,1.7951876953124952,3.5781995117187537,1.0573507486979148,0.8201294596354166,0.472776204427082,1.0676747721354152,5.208330859374995,2.236852278645833,6.248062923177087,3.724577701822906,1.6900611653645805,3.3205670247395855,4.5288367838541665,1.5697996419270812,2.087062825520831,4.197863541666666,6.2921668294270825,3.703925878906253,-0.8718680664062527,1.4391047851562506,-1.5278756835937504,-1.9908233072916588,1.6254239908854162
1.0,22.0,1.0,3.4882513997395814,1.6849771484375016,3.035181184895823,9.943957291666665,7.310195475260419,5.018600846354167,5.837396451822902,7.018272070312492,7.0570901367187355,8.600971842447935,6.741707356770822,9.590238736979149,7.343771256510391,6.600865234374997,6.834376953125009,7.507891503906261,8.423812402343772,9.433009244791654,8.498543001302073,9.2580182942708,9.401123014322911,8.638747070312503,8.470855631510423,7.524026627604175,8.67618089192709,9.007044726562478,5.507973632812508,5.943256640624992,8.315062434895834,6.372836555989587,9.27171552734374,9.16626630859374,3.941434114583337,4.015439713541656,4.2064927734374935,3.502498665364581,6.901461621093741,5.675182942708332,3.818606282552077,6.0314761718749885,2.5547979492187456,6.019766145833334,3.1986150390625023,5.179830403645837,6.477972233072918,10.828954427083323,6.61384072265626,9.19472350260415,7.291572623697918,6.42821393229167,5.49422242838542,4.81522024739584,5.370138281249989,8.757587076822926,6.761628483072911,6.007563704427066,7.5932419270833265,10.000594466145804,5.7382552734374945,4.868690559895842,6.738580305989577,5.4890976888020875,7.080218847656249,4.2991893880208405,4.7816723632812455,1.5763042968749987,0.22759000651041747,3.009025716145828,0.9333375325520809,9.49465458984375
1.0,26.0,3.0,2.5435253906249877,0.7665497070312585,-1.6965254231770823,6.083934798177082,2.249569238281254,4.7396036132812425,5.810984049479154,3.877185937500006,4.240169986979166,0.8587662109374997,0.484807454427082,4.066782291666667,8.95799798177084,4.493653027343754,6.061961165364578,4.957929557291665,4.977191373697915,5.992455598958338,3.984975065104168,0.7992807617187524,3.3343268229166654,4.481239550781253,4.385658365885415,4.54607688802083,0.8963120117187494,4.814841731770847,3.4756938476562502,2.4602163736979192,2.8229081054687515,4.294370312500001,3.1576217773437514,2.197749609375001,2.5695085286458346,0.8646890299479173,-1.2259507812499997,1.1769204752604203,-2.517856217447911,0.8548896484375003,-2.2947702799479184,-2.4025204427083415,-0.41262356770833564,-4.231561035156254,1.4815562499999995,-0.08097623697916614,2.6769221028645824,0.28084752604166807,2.013012141927084,3.8324642252604146,-0.2869943684895807,-1.1861111979166667,-2.115832389322912,0.02841536458333524,-0.2910958007812511,0.29958196614583205,2.4773361979166695,4.82423232421875,1.697533105468751,4.54196123046875,2.4486285156250003,-0.22375449218749918,1.0999072591145838,1.9533873372395816,1.2430330078124994,2.0339821289062505,6.052098209635431,1.1875153645833307,3.203215885416667,2.4336625651041666,6.1224054036458355,2.8704995442708303
1.0,23.0,3.0,-7.2800835611979124,-1.0957512369791678,-5.339514908854173,1.773761881510419,-2.422405273437508,-2.6883321614583355,-2.244065494791665,-3.814541471354168,-3.88925364583333,-0.4059330078125047,2.141388834635419,2.880690104166664,3.2970230143229227,-0.9484893880208302,-2.6784456705729127,-2.3252726562499975,0.2452705078125007,-1.5631766601562502,3.333690364583332,2.5176305013020763,3.908603873697914,-0.7798567382812491,-0.7783026367187483,-3.3117874674479144,2.6495216145833305,6.378842578125017,-6.562460611979169,-2.277564746093749,1.6924505533854148,2.9585084635416674,5.302384212239581,3.0537079427083333,-1.8779844401041634,-4.070276855468754,-6.9795354166666606,-6.901716015624988,-2.702261328124995,0.7446618489583373,1.2199698242187453,-4.895156933593756,-3.716875878906258,-7.491161328125002,-0.6775686523437504,3.022702669270854,5.600791764322928,1.0522743815104136,2.206666341145833,1.376057617187499,0.6056416015624996,2.1307004231770796,1.6788777994791555,1.2718571940104175,2.0076648111979147,5.283580957031247,4.479690820312494,4.943840625000002,4.724278125000006,5.821223014322915,5.132829557291655,2.527302864583328,-0.5199190104166643,4.843227278645819,4.830047102864602,3.8643666992187544,-5.981039550781241,-6.7442405598958315,-3.715711132812501,-14.36338258463539,-7.505035384114581,3.488961295572908
1.0,30.0,3.0,6.250888997395836,4.544187434895853,2.72705882161457,1.408805403645834,3.538039876302087,7.747125130208352,6.937791503906257,4.87152356770833,5.083738769531215,5.769569010416684,3.991154785156249,4.509527278645835,6.498771126302089,5.734030794270814,4.063354427083317,3.751987565104203,5.266896061197934,6.707875553385457,5.871825781249999,3.617312565104181,4.296425260416669,3.34860345052085,3.6203112955728898,0.2363671223958381,0.8445512044270825,1.5384498372395745,1.244701790364576,-2.1357584635416726,0.6297160481770853,2.606314583333352,0.6302788085937503,3.7494087239583465,1.3092893554687428,2.7447776041666696,2.1531139973958413,3.1814993164062475,8.328776139322928,3.1123030273437564,4.434419954427064,8.250558528645838,4.0600849283854155,3.4008576822916834,3.87916949869792,4.4440314453124605,1.4278948567708236,3.3626561523437704,4.194817415364585,0.7077238606770743,1.6381356119791768,5.48182464192709,6.519485839843756,1.6981717447916618,1.1304235026041807,3.5130531575520987,3.666865983072904,2.714509440104166,1.604211848958345,0.6918879557291685,2.6244396809895822,2.7325093749999976,-2.2855113281250046,-0.7703291992187399,0.3573334309895965,1.9970872070312478,11.373898274739545,7.026842578125007,4.725878743489571,11.227568815104158,12.094821842447907,5.947244466145816
1.0,33.0,3.0,8.90514029947916,8.655618977864572,7.062424088541675,11.213738932291681,9.179685221354172,9.880065820312508,5.985135416666669,6.353398860677083,6.345323795572914,6.97452581380209,16.370487792968724,12.397981119791666,9.730474186197926,7.9133110677083485,8.202162141927086,8.557826432291678,10.394376204427088,11.156298177083338,10.64215478515625,8.91019638671875,10.155635123697914,8.883001464843751,7.954097265624998,8.77846409505207,7.76083059895835,10.25536959635417,9.367457096354173,9.987808040364582,8.281331477864581,9.893176204427089,7.850013281250011,10.808420312500024,8.430489095052097,8.484883430989589,8.462786653645827,8.290267805989577,11.38357294921874,10.130116048177097,9.543083984375015,5.772568587239594,9.35450690104166,7.347179817708327,5.276223274739582,5.037584309895825,10.377203645833342,6.171927864583345,12.493279361979148,11.596906966145816,10.788480729166674,8.845655273437496,4.68432063802084,5.8473753580729175,6.153929785156259,14.227154264322932,9.35860201822918,10.493636621093765,8.297933430989579,10.487876529947913,8.968445247395836,9.200194433593749,4.773766145833339,5.698291341145832,6.896575032552078,5.517458951822921,-3.041647363281255,-1.81533037109375,3.14118860677083,0.8952523111979177,0.9487354166666687,8.235767024739575
1.0,34.0,3.0,7.1471885091146055,2.640860611979165,1.3956579427083353,3.6203132812500094,5.122828645833331,3.8976983723958285,-0.5048087890625018,-1.688142382812501,-1.6980831380208377,-3.2893824544270864,3.071218880208336,5.85897998046875,0.6559540690104182,-0.631827701822918,-1.2229746744791623,0.6736967773437508,-1.622317903645838,-2.3672077473958315,-1.4303691731770858,-2.7144324869791734,0.9099907552083351,-0.9585553059895838,-1.3574706380208343,1.981610319010412,-1.1952614257812533,0.08525283203125107,7.699666243489574,-0.8841595703124981,0.590939713541666,-0.9327088541666667,1.522577506510415,1.758666341145834,4.14433818359374,1.6603213867187574,2.4614188476562546,-1.278087695312501,-0.8641965169270875,2.101134635416672,5.716966829427094,-1.5439447916666653,5.075754427083322,-3.0504389322916654,-0.3672428385416647,-0.45961728515625033,0.010526562499999836,0.167139811197916,3.857112565104158,4.52302571614583,7.793815625000007,0.8935085286458353,-1.6968928385416664,-0.12291097005208257,-0.8900382161458326,1.6255979492187536,0.7841649088541676,3.2706456705729163,1.1091161132812501,0.3204210611979153,-0.5522447916666661,-2.5258464518229236,1.4200790364583362,0.10616171875000079,0.7495028645833344,2.2058424479166647,3.9070684895833288,-1.7693194335937512,1.7193912434895886,-1.6607651367187495,-0.9880294921874975,2.5569978841145846
1.0,35.0,2.0,-5.792762434895828,-4.587927636718753,-7.052461360677088,-2.574898925781253,-11.435877441406246,-6.1510353190104174,-1.7956531901041661,-4.101683430989581,-4.134019270833339,-3.6791697916666677,-1.21965058593751,-0.9305872395833347,-1.7418337890624909,-5.578789746093753,-1.0883582682291666,-3.891304069010411,-4.848790755208339,-3.551705664062496,-5.379869173177081,-5.0689531901041605,-2.8757447265624996,-3.5711405924479145,-3.4340184244791643,-6.177476497395844,-2.6845976888020773,-1.0392300781250097,-1.3742508463541743,1.5249967122395907,-4.715118619791668,-2.9720693359375017,-3.258342578124996,-3.0905667968750006,-6.323008300781257,-5.617157877604167,-6.199350618489589,-5.052793587239586,-5.826717252604168,-2.904363899739581,-3.81782571614584,3.162144531250005,-10.851031705729183,-5.766144466145829,-3.573358300781255,-6.871669401041669,-1.1199761067708256,-1.432005175781249,-2.5202520507812514,-2.493868294270833,1.792865787760418,-1.9649397786458325,-9.901172070312509,-6.025820605468756,-6.106373958333339,-5.2238468750000004,-1.8412061848958228,9.124991178385441,-2.0062179036458327,-3.0493565755208323,-4.032905566406245,-3.158220898437498,-5.571248307291667,-2.5761313151041656,-1.237746549479168,-4.913008496093753,5.873648339843748,3.158632552083336,3.737472526041682,-0.8969817382812545,3.945707356770806,-0.8375503580729254
1.0,45.0,2.0,2.815861914062511,1.2754974934895906,3.137404101562509,6.8396622721354134,3.762906966145838,3.968644173177074,2.5355546874999955,1.6307268229166676,1.3261054361979163,4.914996679687493,4.508788053385401,2.5457977539062524,5.300989778645824,1.883734570312499,0.6430111653645846,1.3356650716145844,1.671946972656248,7.564270410156232,4.180042415364579,2.019592903645829,0.19310934244791766,1.1731767252604184,1.6796019205729136,0.38663906249999896,1.173474121093746,0.6850956054687529,3.219983203125006,1.578966992187491,2.4587816406250007,2.5454561523437556,2.652637272135422,4.113560579427083,2.0167548828125024,4.353280989583333,2.860400162760401,3.865829752604179,5.942883072916662,1.981907031249999,9.07709667968752,-1.6818118164062426,1.7269274739583347,1.1174946614583365,1.6079045247395836,5.570421223958327,8.367071744791659,6.202651953125016,6.279203776041675,4.680440690104161,6.301234993489583,6.875556705729186,9.702798600260406,4.755714908854171,2.749816373697911,3.0655991861979124,5.193259407552084,8.92180348307292,3.6613780924479173,1.550924251302084,3.6998254882812525,3.638983723958337,4.189626236979163,4.524244270833336,3.460561653645827,2.409913216145831,21.2424430989583,4.019519596354168,7.34100009765622,7.042382096354182,4.893542057291673,4.255487630208327
1.0,38.0,3.0,6.4135151041666845,4.4722109049479295,6.011841145833334,5.770395670572905,8.224673307291665,4.714328808593752,0.20188183593749812,2.49688919270833,2.308755468750003,-1.3197179036458289,6.1113208984375165,4.491648632812482,4.640209505208348,3.8108867187500057,1.4616537434895853,3.0774053059895903,3.8880332031249982,7.398858691406262,2.202661230468754,4.006626269531247,3.438425488281261,3.6516132812500093,4.353639322916664,0.8449452148437473,3.5118478841145797,6.3252314453125,3.3103389322916716,4.739434895833338,3.6073951171875045,1.7479072265624944,4.411894856770835,4.787778417968753,2.594443684895835,4.226974609374985,6.996732975260422,2.3657387044270832,4.463895345052083,5.122039583333333,8.726743294270834,4.45362516276042,4.217393815104168,1.9252274739583328,-2.298483138020831,4.841244856770838,5.740605696614587,5.502340104166673,5.481708138020835,2.9906529947916742,6.3863492513020965,5.433898079427074,6.206947526041662,3.461263053385418,2.717750781249986,4.650733561197906,4.942880143229169,5.309205013020843,4.216015625000009,3.391705110677089,5.6366589192708405,5.283736295572916,3.545679654947911,7.513779329427095,4.460176985677076,2.07453287760417,-0.29863391927083727,-2.304162662760421,-1.288689713541671,-1.7101256184895794,-2.242566731770836,5.664513704427098
1.0,41.0,1.0,2.134047786458333,1.1157669270833344,0.20315755208332864,-1.2451157877604102,0.5986455729166683,-3.7576066080729245,-3.627579785156246,-0.8065468750000071,-1.1554495442708321,1.803582063802082,6.769441796875018,5.12924576822916,9.708177278645806,0.6050488281249967,-1.6646807617187411,-2.9217117187500006,-2.7339636067708324,5.542393554687499,1.6215373372395858,3.1740032877604225,-0.5739361653645867,-3.3140425455729194,-3.3620307617187564,-5.061021223958334,-3.041685514322922,-2.0969186848958343,-6.583851041666661,-9.018332454427076,-2.7993321289062507,-0.44861298828124996,0.6986520182291596,1.7307942057291674,-2.742755305989587,1.011726432291662,1.043741341145844,3.4021046874999747,-3.4319095052083295,1.835720865885418,3.552550520833327,0.16923118489582675,-1.377223437499998,-9.09717509765626,-5.5673151041666635,-0.05776360677083481,-1.4358942708333355,0.6922999999999959,0.14529521484375732,2.18074684244792,-1.4155378580729188,-1.4894703776041658,-3.471520735677085,-3.3886735351562494,-2.351248079427084,-3.516794238281246,-0.08512099609375622,1.9516721354166628,0.6273901041666579,-2.773694824218756,-1.9977102539062528,-3.6724611328125003,-3.9480124674479202,-3.4592240885416685,-0.04549189453125357,-2.3037181966145828,-11.75114388020834,-10.473679492187491,-5.021761458333342,-10.397508723958353,-10.501166113281242,1.8661586263020917
1.0,41.0,2.0,-3.941724023437505,-7.351675325520824,-6.000463541666676,-3.142794270833328,-4.748239095052075,-5.870773014322928,-5.121995930989589,-4.910880403645841,-4.664877115885413,-1.5119109049479107,0.3038248697916663,-4.878887662760414,-6.481029296875004,-3.733803092447934,-6.158175358072903,-5.491264062499987,-6.17300081380208,-7.075810774739581,-7.250465332031259,-6.54589391276042,-7.10745543619791,-5.374507877604166,-5.793243326822925,-2.635242773437516,-6.53500462239585,-7.921122135416657,2.5686774414062494,-2.0332602213541513,-3.8316850260416686,-5.048115624999999,-4.121437792968735,-4.019329817708329,-2.5565975911458305,-3.8922569986979085,-4.162833170572909,-3.286190787760414,-5.976679166666667,-1.0470285156249912,-4.351999055989566,-2.279088606770831,1.0912201822916676,-4.670080403645838,-4.390194238281247,-3.9527003580728937,-4.10683043619791,-0.8672853190104176,-3.4099795572916585,-5.4874679036458325,-7.874699153645822,-7.678531250000019,-7.671977213541669,-3.3034515950520635,-3.905505501302087,-7.922517708333338,-4.0350876953124954,-5.598490657552092,-4.914196061197914,-6.61468935546876,-5.312050390624981,-4.33631012369793,-1.6326093749999977,-5.574170735677082,-5.220048730468754,-5.151816634114576,4.023007747395824,-0.2798386393229137,-2.3530594401041593,0.0892506510416725,1.7083588541666694,-3.0894320963541655
1.0,41.0,3.0,40.90251184895834,35.43045384114589,29.44057031250001,-9.635053808593744,19.33253919270833,12.963560937500011,-5.649590917968741,-6.017332584635418,-6.7452552734375,-7.72724895833333,-10.631297037760428,-15.236755045572894,-5.937813085937498,-10.51091435546876,-10.195264257812505,-9.395796451822902,-12.250319173177077,-13.458723209635458,-14.111380468749966,-14.725740690104208,-14.967880371093715,-11.358839192708302,-11.326282519531256,-7.6171312825521085,-13.230079003906276,-27.498689355468713,-12.222061393229174,-3.538241503906242,-12.207524609375033,-17.1496398111979,-18.7400549153646,-18.446820117187503,11.48858098958334,30.273069759114588,23.725349153645837,48.5434887369791,0.6460298828124992,-14.208055957031233,-11.95842021484374,3.109588151041663,11.56079970703125,15.208617513020835,-10.451879329427085,-2.677097591145826,-11.191022558593781,-19.971144628906263,-14.844205013020796,-21.287374251302143,-14.149534960937522,-13.606885123697893,-12.888816406249992,-10.771752929687501,-11.27292906901041,-11.02156363932289,-16.20696513671876,-17.806440201822898,-17.051913899739553,-15.032487207031267,-14.010253092447895,-9.78141344401042,-9.950298632812489,-10.490079687499984,-16.825214257812476,-15.533960188802057,-5.9744530273437535,-15.88918027343749,-3.629966796875031,-4.771324772135382,-27.252063281249928,-19.052732096354184
1.0,36.0,3.0,-8.510178027343745,-10.721947688802082,-11.18577255859376,-10.448929654947914,-12.93010794270833,-10.567154654947917,-8.078834342447907,-6.192610449218756,-6.546654101562493,-7.999614583333322,-6.258603450520831,-5.317830305989591,-1.7164149414062502,-5.250618587239585,-3.7696266927083326,-4.342858854166659,-3.250586230468753,-3.4766660481770884,-4.020614746093752,-3.57979388020834,-1.9950439778645788,-1.8467613281250002,-2.020884016927085,-0.2841472005208337,-3.918620507812499,0.7812102213541693,1.7854841471354155,7.314602473958328,1.864451562500001,-0.17322936197916672,1.6144835611979176,-2.365731998697918,-6.221710058593751,-5.833413867187496,-1.332638704427089,-8.373118912760427,-8.979028092447928,-8.924479036458317,-9.09245830078122,-9.618647200520863,-6.226660156250003,-5.1670142903645875,-3.2990740559895886,-7.79609778645835,-10.767237955729165,-6.286340136718749,-9.676404915364573,-5.216253287760408,-7.450617154947916,-5.503519661458335,-4.638440755208332,-3.9872513997395806,-4.161866764322909,-5.9700276367187515,-4.0937465169270775,0.6795388020833327,-3.2712579752604207,-4.859980371093749,-2.464218001302086,-2.8105846028645893,-1.059315917968752,1.2701914062499948,-3.9803232421874912,-0.873660058593751,-9.19291136067707,-6.217149153645837,-10.576846256510404,-6.0624157877604175,-8.293482291666653,-4.453025651041663
1.0,37.0,2.0,5.463563378906251,3.2227028971354255,9.020300618489584,4.623451367187505,1.397816699218749,4.4393754231770926,6.822525651041688,6.992567154947925,7.153915690104186,7.099663964843753,8.544561523437498,5.126915266927086,9.69195992838541,6.104962369791643,7.15415761718749,4.47209462890626,3.5448459309895743,4.283863183593751,1.247160416666667,0.3383908854166648,0.6245275390624992,1.3297916992187508,2.0095719075520857,2.518587630208334,3.3602367513020828,1.5010547851562472,-5.148574446614578,2.5071888997395857,0.29634345703124965,1.0143981770833317,-0.6183352213541676,1.2461412434895835,3.9951693684895857,3.83059388020833,1.4143766601562513,6.12574374999999,7.340342610677087,4.522068587239585,3.6434365559895947,3.68684195963543,0.30551640625000215,-0.5500771484375019,3.261723274739573,2.322086555989581,2.8907904296875,-0.28877011718749995,5.852946093749998,8.317723307291683,7.1128340494791695,5.061468229166665,2.861051725260411,1.2809181315104148,0.2988416015624978,-3.1224168294270913,2.34232259114583,3.349433430989588,-1.1017346028645847,3.845315266927093,1.1296841796874986,0.7410492513020815,0.6365105143229163,-0.02191139322916563,-2.266127766927083,-1.2948797526041689,4.011992382812489,4.983038476562506,3.8277792968750006,4.670823502604164,12.659962597656238,1.469608854166666
1.0,38.0,1.0,14.6574491210938,10.086639941406256,30.77704977213543,-3.7071904947916625,35.09639228515628,11.18166621093752,-4.5784127604166684,1.681500846354164,1.288652864583334,-2.1644742513020883,-8.611890755208341,-1.024790755208331,-3.11495087890625,1.5105336914062493,0.7799251627604158,-1.3392775390624985,-1.063209537760417,-1.7800786783854168,-2.787076106770829,5.497830794270832,-2.2256643554687483,-1.2805997721354165,-1.4706126627604148,0.5756981770833325,-1.2246904947916633,-2.1528531901041705,2.1609246744791695,-6.516594466145825,-3.2988625000000007,-3.2913971679687464,-3.869254003906251,-1.8761138346354178,7.949287923177082,22.69847171223959,43.894424511718775,21.45169358723957,8.268111067708356,-3.919011979166671,-2.607802766927079,3.7138349934895865,12.361228548177102,5.982171647135417,-1.8111801757812487,3.6132281249999973,-0.39680423177083296,2.8016866210937503,-3.8910434570312464,-0.7116384114583378,-1.3216319661458298,-2.8232387369791656,-7.771276106770833,-1.869416796875001,-1.9551982096354175,-3.91209033203125,-2.884674316406245,-4.056909244791659,-2.7895561197916674,-0.12196595052083453,-3.3319427083333344,-1.1336077148437476,-0.6976236653645859,0.44908805338541496,-2.9653585611979207,-0.5940453776041684,10.237541471354172,0.134791666666667,-4.917201074218752,4.271570377604169,0.5192850260416654,-2.366595670572917
1.0,39.0,1.0,-15.883147395833328,-6.717108821614578,-7.8257670247395765,8.09145416666667,-8.598655533854176,-7.4665609700521,2.1212036132812506,2.7453095377604124,2.6900405924479167,-0.9634298502604134,9.696862955729157,7.6561902343749955,4.066935546875006,4.116256412760417,2.4067550781250002,5.32700771484376,7.945396940104164,9.103816145833319,8.027124511718734,13.636960677083401,9.258063932291654,5.88771539713542,5.937166373697916,5.390662955729162,5.0927783854166675,12.064032747395862,7.892474641927092,8.780793326822915,8.88636595052082,11.455195703124987,13.11745598958334,11.584491699218752,-1.6848267252604163,-3.915814811197904,-1.3012195312500043,-8.370662272135425,-1.555408235677085,6.512314583333332,8.241155403645827,7.663740429687494,-8.648843359375006,4.735788932291665,4.649849218750001,2.5925350911458387,8.993591731770836,8.415465787760416,8.613143684895837,11.120122851562522,9.214222786458327,9.264428320312499,5.722235611979168,7.801575813802095,7.965619238281248,14.644452343749984,11.849032486979164,9.50966552734373,10.44930406901041,11.055806217447904,11.447543652343759,8.015415266927088,4.6052149414062455,5.940951269531266,9.679733723958334,9.849618033854165,10.487369075520853,0.8403620768229177,-1.4214538085937471,-0.5754776367187492,0.5713408528645817,9.439213346354162
1.0,40.0,2.0,-4.511084440104169,0.9097880533854164,-2.98772685546875,1.2473593098958362,2.704662109374991,-2.816072786458332,1.4026452473958324,0.9568595052083336,1.4477467773437536,-4.170461002604177,0.4533595377604171,5.534223860677081,5.006855436197924,5.081527180989599,1.158061263020832,4.622363183593751,6.292408886718747,5.248286295572922,9.251938736979179,8.529045084635408,7.7861593750000155,7.495211230468747,7.523116503906263,3.8633144856770816,3.6840422200520884,10.375358333333345,11.076967838541698,4.682096289062507,6.861184309895839,9.66424241536457,11.016428841145844,9.34511966145833,1.7444754557291677,3.0669883463541816,5.964571289062498,-0.07392343749999898,3.5937982421875017,2.68071663411458,7.100673958333325,5.91991516927083,5.484363378906238,5.806376822916665,7.729798209635412,4.387606217447924,9.759580664062488,10.036081803385418,2.9440039713541655,4.268693977864589,9.219130989583341,7.382994108072919,2.628771842447919,6.8125845703125,8.110860839843742,9.72664182942708,9.958396191406251,9.91259309895833,10.43711422526044,7.1780668294271095,10.117606087239611,6.505825162760433,5.30056988932291,5.840488867187506,10.29633310546874,10.592502636718732,4.935667220052082,-2.32995445963541,3.407722005208331,7.859002115885424,0.30393378906250074,9.800181477864582
1.0,34.0,1.0,11.690455045572923,9.752215136718755,14.243629947916672,13.465691178385406,14.737551562500029,9.775795149739563,9.102522037760446,11.81302584635418,11.373158398437502,11.964360872395831,12.343759700520833,15.166822558593765,14.256871386718734,12.709249772135408,9.414334114583333,8.480260481770841,11.710198535156225,10.96471344401042,16.540265397135407,10.253848860677104,14.53051038411459,12.075048079427086,11.57909960937498,8.696998177083332,11.286059342447913,15.329536132812526,14.315619140625024,9.735850260416681,11.918277278645848,15.77070888671876,17.377192350260398,16.648607519531236,9.812844433593744,11.953117089843737,13.524112109374995,12.15783665364583,6.431872884114594,15.032353743489589,12.494886458333353,12.092598535156272,10.16978294270835,9.95533336588541,10.008633756510424,8.15356953125,13.652966243489615,14.924685611979166,15.855863541666686,18.741480566406253,12.048035709635405,14.679986881510418,9.326102180989572,9.124958138020842,12.035824609374982,7.77985130208334,13.538423372395838,7.419485970052079,13.24644759114584,14.031086490885441,11.932050878906203,13.402844531250027,4.179990787760416,13.82941484374998,12.44522122395835,8.441374153645842,33.23121165364588,-7.863666341145831,11.293425520833301,12.337234440104156,-7.341409798177087,16.863378352864597
